NotWavenumber,NotIntensity
6002.932793,0.114082
6002.932638,0.114254
6002.932479,0.114432
6002.932324,0.114394
6002.932166,0.114453
6002.932011,0.114896
6002.931856,0.116049
6002.931697,0.116663
6002.931542,0.118046
6002.931387,0.119134
6002.931229,0.120088
6002.931074,0.120434
6002.930915,0.120579
6002.93076,0.119923
6002.930606,0.117453
6002.930447,0.115224
6002.930292,0.113323
6002.930133,0.113793
6002.929978,0.115007
6002.929824,0.115873
6002.929665,0.116956
6002.92951,0.117678
6002.929351,0.117881
6002.929197,0.117918
6002.929042,0.117997
6002.928883,0.117627
6002.928728,0.117354
6002.928573,0.118114
6002.928415,0.119661
6002.92826,0.121862
6002.928101,0.12416
6002.927946,0.126966
6002.927791,0.128719
6002.927633,0.130259
6002.927478,0.131503
6002.927319,0.132574
6002.927164,0.133249
6002.927009,0.133484
6002.926851,0.133721
6002.926696,0.133796
6002.926537,0.134265
6002.926382,0.133612
6002.926227,0.133599
6002.926069,0.13343
6002.925914,0.133601
6002.925759,0.133619
6002.9256,0.134033
6002.925445,0.134265
6002.925287,0.13399
6002.925132,0.13409
6002.924977,0.133518
6002.924818,0.133061
6002.924663,0.132691
6002.924505,0.131984
6002.92435,0.131129
6002.924195,0.130006
6002.924036,0.128827
6002.923881,0.127756
6002.923723,0.126485
6002.923568,0.125383
6002.923413,0.124342
6002.923254,0.12353
6002.923099,0.122554
6002.922944,0.122292
6002.922786,0.121518
6002.922631,0.121077
6002.922472,0.120702
6002.922317,0.120225
6002.922162,0.120341
6002.922004,0.12067
6002.921849,0.120538
6002.92169,0.120196
6002.921535,0.11986
6002.921381,0.119425
6002.921222,0.119062
6002.921067,0.118123
6002.920908,0.117788
6002.920754,0.117395
6002.920599,0.11716
6002.92044,0.116176
6002.920285,0.115726
6002.92013,0.114928
6002.919972,0.114009
6002.919817,0.113448
6002.919658,0.112685
6002.919503,0.111945
6002.919348,0.111512
6002.91919,0.111183
6002.919035,0.110733
6002.918876,0.10998
6002.918721,0.109422
6002.918566,0.109745
6002.918408,0.109981
6002.918253,0.110762
6002.918094,0.1114
6002.917939,0.111937
6002.917784,0.112513
6002.917626,0.113091
6002.917471,0.113202
6002.917316,0.113699
6002.917157,0.113933
6002.917002,0.114182
6002.916844,0.11481
6002.916689,0.115185
6002.916534,0.115354
6002.916375,0.115336
6002.91622,0.116045
6002.916062,0.115872
6002.915907,0.116478
6002.915752,0.116247
6002.915593,0.116929
6002.915438,0.117015
6002.91528,0.117537
6002.915125,0.118141
6002.91497,0.118945
6002.914811,0.119199
6002.914656,0.119756
6002.914501,0.120208
6002.914343,0.121164
6002.914188,0.121803
6002.914029,0.122462
6002.913874,0.123498
6002.913719,0.124745
6002.913561,0.125975
6002.913406,0.126902
6002.913247,0.127495
6002.913092,0.128159
6002.912938,0.128678
6002.912779,0.129147
6002.912624,0.1299
6002.912465,0.130624
6002.912311,0.131341
6002.912156,0.131722
6002.911997,0.132245
6002.911842,0.132299
6002.911687,0.132052
6002.911529,0.132255
6002.911374,0.132087
6002.911215,0.131458
6002.91106,0.131294
6002.910905,0.131009
6002.910747,0.130635
6002.910592,0.129977
6002.910433,0.129132
6002.910278,0.128908
6002.910123,0.128866
6002.909965,0.128945
6002.90981,0.129048
6002.909651,0.12946
6002.909496,0.12992
6002.909341,0.130112
6002.909183,0.130714
6002.909028,0.131167
6002.908873,0.131264
6002.908714,0.131646
6002.908559,0.131675
6002.908401,0.131578
6002.908246,0.132072
6002.908091,0.13211
6002.907932,0.132097
6002.907777,0.131819
6002.907619,0.131759
6002.907464,0.131362
6002.907309,0.131013
6002.90715,0.130404
6002.906995,0.130268
6002.906837,0.129824
6002.906682,0.12972
6002.906527,0.129668
6002.906368,0.129385
6002.906213,0.128763
6002.906058,0.128558
6002.9059,0.128618
6002.905745,0.128449
6002.905586,0.128362
6002.905431,0.1286
6002.905276,0.128799
6002.905118,0.129519
6002.904963,0.130369
6002.904804,0.131219
6002.904649,0.131745
6002.904495,0.131972
6002.904336,0.132485
6002.904181,0.132752
6002.904022,0.132996
6002.903868,0.132987
6002.903713,0.133163
6002.903554,0.133022
6002.903399,0.132725
6002.903244,0.132049
6002.903086,0.131247
6002.902931,0.129995
6002.902772,0.128872
6002.902617,0.127794
6002.902462,0.126677
6002.902304,0.125409
6002.902149,0.123834
6002.90199,0.121942
6002.901835,0.119856
6002.90168,0.11779
6002.901522,0.115918
6002.901367,0.114699
6002.901208,0.113663
6002.901053,0.112928
6002.900898,0.112671
6002.90074,0.112247
6002.900585,0.112268
6002.90043,0.11257
6002.900271,0.113162
6002.900116,0.113632
6002.899958,0.11431
6002.899803,0.114916
6002.899648,0.115323
6002.899489,0.116172
6002.899334,0.116419
6002.899176,0.117304
6002.899021,0.117764
6002.898866,0.118292
6002.898707,0.119011
6002.898552,0.119349
6002.898394,0.119667
6002.898239,0.119732
6002.898084,0.119772
6002.897925,0.119696
6002.89777,0.119736
6002.897615,0.119666
6002.897457,0.11961
6002.897302,0.119936
6002.897143,0.120148
6002.896988,0.120673
6002.896834,0.121734
6002.896675,0.122688
6002.89652,0.123953
6002.896361,0.125458
6002.896207,0.126842
6002.896052,0.128249
6002.895893,0.129099
6002.895738,0.129988
6002.89558,0.13055
6002.895425,0.131233
6002.89527,0.131761
6002.895111,0.131853
6002.894956,0.131698
6002.894801,0.131564
6002.894643,0.130918
6002.894488,0.130244
6002.894329,0.129193
6002.894174,0.128519
6002.894019,0.127735
6002.893861,0.126867
6002.893706,0.126241
6002.893547,0.12556
6002.893392,0.124642
6002.893237,0.124283
6002.893079,0.124023
6002.892924,0.123852
6002.892765,0.124313
6002.89261,0.12475
6002.892455,0.125152
6002.892297,0.125667
6002.892142,0.12588
6002.891987,0.126241
6002.891828,0.126679
6002.891673,0.126646
6002.891515,0.127386
6002.89136,0.127272
6002.891205,0.127306
6002.891046,0.127394
6002.890891,0.127621
6002.890733,0.127697
6002.890578,0.127405
6002.890423,0.12661
6002.890264,0.126104
6002.890109,0.125598
6002.889955,0.124711
6002.889796,0.123809
6002.889641,0.123114
6002.889482,0.12206
6002.889327,0.121402
6002.889173,0.120602
6002.889014,0.120003
6002.888859,0.119704
6002.8887,0.119095
6002.888546,0.119319
6002.888391,0.119404
6002.888232,0.119808
6002.888077,0.120437
6002.887919,0.120993
6002.887764,0.121236
6002.887609,0.121608
6002.88745,0.121602
6002.887295,0.121573
6002.88714,0.12136
6002.886982,0.120931
6002.886827,0.120969
6002.886668,0.121046
6002.886513,0.12079
6002.886358,0.12039
6002.8862,0.120019
6002.886045,0.11922
6002.885886,0.118686
6002.885731,0.118175
6002.885576,0.117297
6002.885418,0.116625
6002.885263,0.115981
6002.885104,0.115598
6002.884949,0.11459
6002.884794,0.113975
6002.884636,0.112599
6002.884481,0.111498
6002.884326,0.110645
6002.884167,0.110019
6002.884012,0.109666
6002.883854,0.109573
6002.883699,0.109507
6002.883544,0.109169
6002.883385,0.109375
6002.88323,0.109209
6002.883072,0.109613
6002.882917,0.109726
6002.882762,0.110044
6002.882603,0.110144
6002.882448,0.11037
6002.88229,0.110951
6002.882135,0.111463
6002.88198,0.111532
6002.881821,0.111976
6002.881667,0.111838
6002.881512,0.112101
6002.881353,0.111988
6002.881198,0.111697
6002.88104,0.111607
6002.880885,0.11147
6002.88073,0.111235
6002.880571,0.111223
6002.880416,0.11087
6002.880258,0.110624
6002.880103,0.110297
6002.879948,0.11021
6002.879789,0.110088
6002.879634,0.109885
6002.879476,0.110631
6002.879321,0.110875
6002.879166,0.111637
6002.879007,0.112511
6002.878852,0.113244
6002.878697,0.113999
6002.878539,0.114183
6002.878384,0.114544
6002.878225,0.115058
6002.87807,0.115197
6002.877915,0.11603
6002.877757,0.116486
6002.877602,0.116723
6002.877443,0.117243
6002.877288,0.117603
6002.877133,0.117557
6002.876975,0.117758
6002.87682,0.117733
6002.876661,0.117572
6002.876506,0.117496
6002.876351,0.11732
6002.876193,0.116913
6002.876038,0.116861
6002.875883,0.116173
6002.875724,0.115981
6002.875569,0.115748
6002.875411,0.115702
6002.875256,0.115445
6002.875101,0.115599
6002.874942,0.115713
6002.874788,0.115954
6002.874629,0.116445
6002.874474,0.116805
6002.874319,0.117087
6002.874161,0.117472
6002.874006,0.11769
6002.873847,0.117686
6002.873692,0.118068
6002.873537,0.118079
6002.873379,0.118271
6002.873224,0.118307
6002.873069,0.118424
6002.87291,0.118466
6002.872755,0.118304
6002.872597,0.118085
6002.872442,0.118303
6002.872287,0.118176
6002.872128,0.118017
6002.871973,0.11795
6002.871815,0.117996
6002.87166,0.117677
6002.871505,0.117904
6002.871346,0.117528
6002.871191,0.117672
6002.871033,0.117671
6002.870878,0.117523
6002.870723,0.117879
6002.870564,0.118368
6002.870409,0.118779
6002.870254,0.119466
6002.870096,0.120377
6002.869941,0.121041
6002.869782,0.122211
6002.869627,0.122766
6002.869472,0.123502
6002.869314,0.124166
6002.869159,0.125104
6002.869,0.125928
6002.868845,0.126679
6002.868691,0.127113
6002.868532,0.127626
6002.868377,0.127547
6002.868218,0.127678
6002.868064,0.127413
6002.867909,0.127172
6002.86775,0.126321
6002.867595,0.125453
6002.86744,0.124253
6002.867282,0.122978
6002.867127,0.121081
6002.866968,0.119333
6002.866813,0.118176
6002.866658,0.116886
6002.8665,0.115961
6002.866345,0.115076
6002.866186,0.114457
6002.866031,0.113774
6002.865876,0.113806
6002.865718,0.113547
6002.865563,0.11353
6002.865404,0.113822
6002.865249,0.113946
6002.865094,0.114436
6002.864936,0.114329
6002.864781,0.114544
6002.864626,0.114833
6002.864467,0.115477
6002.864312,0.115816
6002.864154,0.116407
6002.863999,0.116981
6002.863844,0.117559
6002.863685,0.117587
6002.86353,0.118025
6002.863372,0.118302
6002.863217,0.118579
6002.863062,0.118766
6002.862903,0.118952
6002.862748,0.119051
6002.86259,0.119734
6002.862435,0.120014
6002.86228,0.120493
6002.862121,0.120778
6002.861966,0.121754
6002.861812,0.122721
6002.861653,0.124346
6002.861498,0.125833
6002.861339,0.127016
6002.861185,0.128618
6002.86103,0.129515
6002.860871,0.130236
6002.860716,0.130667
6002.860558,0.13099
6002.860403,0.130567
6002.860248,0.130121
6002.860089,0.129403
6002.859934,0.128333
6002.859776,0.127384
6002.859621,0.125858
6002.859466,0.124471
6002.859307,0.122562
6002.859152,0.121038
6002.858997,0.118965
6002.858839,0.117238
6002.858684,0.11525
6002.858525,0.113629
6002.85837,0.112089
6002.858215,0.110926
6002.858057,0.109896
6002.857902,0.108978
6002.857743,0.108194
6002.857588,0.10821
6002.857433,0.108202
6002.857275,0.108068
6002.85712,0.108119
6002.856961,0.108304
6002.856806,0.108658
6002.856651,0.109082
6002.856493,0.109681
6002.856338,0.110054
6002.856183,0.110415
6002.856024,0.111038
6002.855869,0.111755
6002.855711,0.112552
6002.855556,0.113209
6002.855401,0.113781
6002.855242,0.114296
6002.855088,0.114909
6002.854929,0.115716
6002.854774,0.116182
6002.854619,0.116519
6002.854461,0.117085
6002.854306,0.117285
6002.854147,0.117675
6002.853992,0.118103
6002.853837,0.118613
6002.853679,0.118913
6002.853524,0.119324
6002.853369,0.119474
6002.85321,0.11972
6002.853055,0.119427
6002.852897,0.119578
6002.852742,0.119318
6002.852587,0.119096
6002.852428,0.118895
6002.852273,0.118988
6002.852115,0.118903
6002.85196,0.118857
6002.851805,0.118779
6002.851646,0.118319
6002.851491,0.117933
6002.851333,0.117246
6002.851178,0.116617
6002.851023,0.115603
6002.850864,0.115018
6002.850709,0.113907
6002.850554,0.112696
6002.850396,0.111694
6002.850241,0.110308
6002.850082,0.108896
6002.849927,0.108444
6002.849772,0.107508
6002.849614,0.106999
6002.849459,0.10686
6002.8493,0.106762
6002.849145,0.106826
6002.848991,0.10695
6002.848832,0.10735
6002.848677,0.107697
6002.848522,0.10819
6002.848364,0.108649
6002.848209,0.10941
6002.84805,0.109798
6002.847895,0.110545
6002.84774,0.110768
6002.847582,0.111248
6002.847427,0.11114
6002.847268,0.111245
6002.847113,0.110571
6002.846958,0.11036
6002.8468,0.10952
6002.846645,0.108916
6002.846486,0.107972
6002.846331,0.106937
6002.846176,0.106202
6002.846018,0.105532
6002.845863,0.105003
6002.845708,0.104483
6002.845549,0.103956
6002.845394,0.103913
6002.845236,0.10377
6002.845081,0.10365
6002.844926,0.10388
6002.844767,0.104306
6002.844612,0.104624
6002.844454,0.105054
6002.844299,0.105769
6002.844144,0.106256
6002.843985,0.106857
6002.84383,0.107097
6002.843672,0.107401
6002.843517,0.107788
6002.843362,0.108192
6002.843203,0.1084
6002.843049,0.108306
6002.842894,0.108238
6002.842735,0.107525
6002.84258,0.106854
6002.842422,0.105444
6002.842267,0.104282
6002.842112,0.102513
6002.841953,0.100987
6002.841798,0.099286
6002.84164,0.097643
6002.841485,0.095863
6002.84133,0.094318
6002.841171,0.093214
6002.841016,0.091745
6002.840858,0.090885
6002.840703,0.089831
6002.840548,0.08916
6002.840389,0.088713
6002.840234,0.088543
6002.840079,0.087971
6002.839921,0.088164
6002.839766,0.088342
6002.839607,0.088526
6002.839452,0.088755
6002.839297,0.089118
6002.839139,0.089891
6002.838984,0.090803
6002.838825,0.091562
6002.83867,0.092242
6002.838515,0.092976
6002.838357,0.093537
6002.838202,0.094347
6002.838043,0.095083
6002.837888,0.095612
6002.837733,0.096505
6002.837575,0.096578
6002.83742,0.097215
6002.837265,0.097328
6002.837106,0.097668
6002.836952,0.097892
6002.836793,0.098178
6002.836638,0.09822
6002.836483,0.09851
6002.836325,0.098524
6002.83617,0.098932
6002.836011,0.099178
6002.835856,0.099878
6002.835701,0.100497
6002.835543,0.101081
6002.835388,0.101986
6002.835229,0.102468
6002.835074,0.103093
6002.834919,0.103221
6002.834761,0.104326
6002.834606,0.104975
6002.834451,0.105885
6002.834292,0.10658
6002.834137,0.10694
6002.833979,0.107181
6002.833824,0.107209
6002.833669,0.106815
6002.83351,0.106476
6002.833355,0.105865
6002.833197,0.105451
6002.833042,0.104686
6002.832887,0.104269
6002.832728,0.103472
6002.832573,0.102824
6002.832415,0.101809
6002.83226,0.101091
6002.832105,0.100813
6002.831946,0.101237
6002.831791,0.101326
6002.831637,0.102176
6002.831478,0.102978
6002.831323,0.103724
6002.831164,0.104984
6002.83101,0.105716
6002.830855,0.106427
6002.830696,0.107687
6002.830541,0.10825
6002.830383,0.109084
6002.830228,0.109748
6002.830073,0.1099
6002.829914,0.109977
6002.829759,0.1094
6002.829601,0.10946
6002.829446,0.108785
6002.829291,0.107935
6002.829132,0.106631
6002.828977,0.105557
6002.828822,0.104163
6002.828664,0.103146
6002.828509,0.101902
6002.82835,0.101043
6002.828195,0.100411
6002.82804,0.100045
6002.827882,0.100029
6002.827727,0.100146
6002.827568,0.100657
6002.827413,0.100932
6002.827258,0.101831
6002.8271,0.102735
6002.826945,0.104238
6002.826786,0.105889
6002.826631,0.107259
6002.826476,0.108672
6002.826318,0.110062
6002.826163,0.110466
6002.826008,0.110997
6002.825849,0.11097
6002.825695,0.111195
6002.825536,0.110871
6002.825381,0.110131
6002.825226,0.109757
6002.825068,0.109117
6002.824913,0.108459
6002.824754,0.107811
6002.824599,0.107536
6002.824444,0.106997
6002.824286,0.106189
6002.824131,0.106015
6002.823972,0.105496
6002.823817,0.105512
6002.823662,0.105082
6002.823504,0.105117
6002.823349,0.10507
6002.823194,0.105651
6002.823035,0.105809
6002.82288,0.106182
6002.822722,0.106424
6002.822567,0.107367
6002.822412,0.107988
6002.822253,0.108634
6002.822098,0.10916
6002.82194,0.11011
6002.821785,0.110554
6002.82163,0.111565
6002.821471,0.112551
6002.821316,0.113563
6002.821158,0.114047
6002.821003,0.114881
6002.820848,0.115442
6002.820689,0.115363
6002.820534,0.115579
6002.82038,0.115616
6002.820221,0.115311
6002.820066,0.115058
6002.819907,0.114622
6002.819753,0.114285
6002.819598,0.113689
6002.819439,0.113248
6002.819284,0.112626
6002.819126,0.111957
6002.818971,0.111617
6002.818816,0.111383
6002.818657,0.111658
6002.818502,0.111541
6002.818344,0.111534
6002.818189,0.111503
6002.818034,0.111602
6002.817875,0.111519
6002.81772,0.111526
6002.817565,0.111759
6002.817407,0.111393
6002.817252,0.111879
6002.817093,0.111887
6002.816938,0.112117
6002.816783,0.112057
6002.816625,0.111906
6002.81647,0.112096
6002.816311,0.111812
6002.816156,0.111672
6002.816001,0.11156
6002.815843,0.110939
6002.815688,0.11079
6002.815529,0.110519
6002.815374,0.109676
6002.815219,0.109311
6002.815061,0.108552
6002.814906,0.108359
6002.814751,0.107717
6002.814593,0.107843
6002.814438,0.107792
6002.814279,0.107501
6002.814124,0.107462
6002.813969,0.107414
6002.813811,0.107839
6002.813656,0.108198
6002.813497,0.109003
6002.813342,0.109329
6002.813187,0.110183
6002.813029,0.111367
6002.812874,0.11229
6002.812715,0.113023
6002.81256,0.114062
6002.812405,0.114798
6002.812247,0.115345
6002.812092,0.115589
6002.811937,0.115783
6002.811778,0.115958
6002.811623,0.116315
6002.811465,0.116315
6002.81131,0.116394
6002.811155,0.116353
6002.810996,0.116407
6002.810841,0.116132
6002.810683,0.116566
6002.810528,0.116716
6002.810373,0.116792
6002.810214,0.117062
6002.810059,0.11736
6002.809901,0.118116
6002.809746,0.118703
6002.809591,0.119276
6002.809432,0.120198
6002.809278,0.120701
6002.809123,0.121596
6002.808964,0.121907
6002.808809,0.122625
6002.808651,0.122374
6002.808496,0.122616
6002.808341,0.122277
6002.808182,0.122244
6002.808027,0.121914
6002.807869,0.121039
6002.807714,0.120408
6002.807559,0.119537
6002.8074,0.11819
6002.807245,0.117057
6002.80709,0.115709
6002.806932,0.114349
6002.806777,0.113058
6002.806618,0.111528
6002.806463,0.110224
6002.806308,0.10911
6002.80615,0.107643
6002.805995,0.106694
6002.805836,0.105777
6002.805681,0.105528
6002.805526,0.105106
6002.805368,0.105457
6002.805213,0.105562
6002.805054,0.105728
6002.804899,0.106409
6002.804744,0.106791
6002.804586,0.107293
6002.804431,0.107818
6002.804276,0.108099
6002.804118,0.108694
6002.803963,0.109103
6002.803804,0.109671
6002.803649,0.110073
6002.803494,0.110537
6002.803336,0.110806
6002.803181,0.111512
6002.803022,0.111986
6002.802867,0.11283
6002.802712,0.113359
6002.802554,0.113918
6002.802399,0.11399
6002.80224,0.11413
6002.802085,0.114699
6002.80193,0.114707
6002.801772,0.115
6002.801617,0.115254
6002.801462,0.115634
6002.801303,0.116046
6002.801148,0.11638
6002.80099,0.116988
6002.800835,0.117692
6002.80068,0.118728
6002.800521,0.1193
6002.800366,0.120278
6002.800208,0.120891
6002.800053,0.12131
6002.799898,0.121798
6002.799739,0.122358
6002.799584,0.122898
6002.799426,0.123321
6002.799271,0.12364
6002.799116,0.123442
6002.798957,0.123695
6002.798803,0.123593
6002.798648,0.12366
6002.798489,0.123675
6002.798334,0.123468
6002.798176,0.123263
6002.798021,0.122938
6002.797866,0.122581
6002.797707,0.121864
6002.797552,0.121228
6002.797394,0.119886
6002.797239,0.119075
6002.797084,0.118215
6002.796925,0.117507
6002.79677,0.117117
6002.796612,0.117491
6002.796457,0.117601
6002.796302,0.117769
6002.796143,0.118131
6002.795988,0.118465
6002.795833,0.119207
6002.795675,0.119901
6002.79552,0.120581
6002.795361,0.121033
6002.795206,0.12117
6002.795051,0.121133
6002.794893,0.120869
6002.794738,0.12038
6002.794579,0.119627
6002.794424,0.119108
6002.79427,0.118014
6002.794111,0.117243
6002.793956,0.116323
6002.793797,0.115235
6002.793643,0.113696
6002.793488,0.112625
6002.793329,0.111222
6002.793174,0.109584
6002.793019,0.108821
6002.792861,0.107438
6002.792706,0.10679
6002.792547,0.105699
6002.792392,0.105163
6002.792237,0.10479
6002.792079,0.104383
6002.791924,0.104254
6002.791765,0.104508
6002.79161,0.105174
6002.791455,0.106047
6002.791297,0.107133
6002.791142,0.108022
6002.790983,0.109126
6002.790828,0.109609
6002.790673,0.109787
6002.790515,0.109811
6002.79036,0.109613
6002.790205,0.109021
6002.790046,0.10872
6002.789891,0.107912
6002.789733,0.107701
6002.789578,0.107306
6002.789423,0.106631
6002.789264,0.106521
6002.78911,0.106166
6002.788951,0.105952
6002.788796,0.105826
6002.788641,0.105854
6002.788483,0.105856
6002.788328,0.10596
6002.788169,0.106375
6002.788014,0.10638
6002.787859,0.107155
6002.787701,0.107784
6002.787546,0.108099
6002.787391,0.108789
6002.787232,0.109645
6002.787077,0.110272
6002.786919,0.111233
6002.786764,0.111794
6002.786609,0.112051
6002.78645,0.112291
6002.786295,0.11232
6002.786137,0.112159
6002.785982,0.112148
6002.785827,0.111796
6002.785668,0.111787
6002.785513,0.111701
6002.785355,0.111231
6002.7852,0.110719
6002.785045,0.110446
6002.784886,0.109495
6002.784731,0.108891
6002.784577,0.108148
6002.784418,0.107306
6002.784263,0.106391
6002.784104,0.105767
6002.78395,0.104899
6002.783795,0.104459
6002.783636,0.103735
6002.783481,0.103475
6002.783323,0.103055
6002.783168,0.10285
6002.783013,0.103195
6002.782854,0.103416
6002.782699,0.103931
6002.782541,0.104441
6002.782386,0.104901
6002.782231,0.105324
6002.782072,0.105736
6002.781917,0.106219
6002.781762,0.106188
6002.781604,0.106177
6002.781449,0.105769
6002.78129,0.105572
6002.781135,0.105055
6002.78098,0.104701
6002.780822,0.104203
6002.780667,0.103242
6002.780508,0.102422
6002.780353,0.10125
6002.780198,0.10007
6002.78004,0.099103
6002.779885,0.098136
6002.779726,0.09726
6002.779571,0.096382
6002.779417,0.095994
6002.779258,0.095363
6002.779103,0.094927
6002.778948,0.094682
6002.77879,0.094432
6002.778635,0.094641
6002.778476,0.095218
6002.778321,0.09577
6002.778166,0.096373
6002.778008,0.097201
6002.777853,0.098316
6002.777694,0.099379
6002.777539,0.100091
6002.777384,0.101125
6002.777226,0.101887
6002.777071,0.102737
6002.776912,0.103238
6002.776757,0.104107
6002.776602,0.10454
6002.776444,0.104943
6002.776289,0.105333
6002.776134,0.105418
6002.775975,0.105724
6002.77582,0.105887
6002.775662,0.106013
6002.775507,0.105722
6002.775352,0.105846
6002.775193,0.105986
6002.775038,0.105814
6002.77488,0.106194
6002.774725,0.106464
6002.77457,0.106871
6002.774412,0.107646
6002.774257,0.108168
6002.774098,0.108837
6002.773943,0.109731
6002.773788,0.110512
6002.77363,0.111086
6002.773475,0.111298
6002.77332,0.11165
6002.773161,0.111677
6002.773006,0.111524
6002.772848,0.111419
6002.772693,0.111005
6002.772538,0.110751
6002.772379,0.110066
6002.772224,0.109452
6002.772066,0.108512
6002.771911,0.107129
6002.771756,0.106145
6002.771597,0.105092
6002.771442,0.104327
6002.771284,0.10334
6002.771129,0.10241
6002.770974,0.101822
6002.770815,0.100996
6002.77066,0.100493
6002.770505,0.100205
6002.770347,0.099596
6002.770192,0.099194
6002.770033,0.098956
6002.769879,0.099103
6002.769724,0.099345
6002.769565,0.0998
6002.76941,0.100223
6002.769252,0.100848
6002.769097,0.101472
6002.768942,0.102059
6002.768783,0.102516
6002.768628,0.102601
6002.76847,0.102407
6002.768315,0.102443
6002.76816,0.10268
6002.768001,0.102933
6002.767846,0.102651
6002.767691,0.102821
6002.767533,0.102758
6002.767378,0.10278
6002.767219,0.102664
6002.767064,0.10246
6002.766909,0.102504
6002.766751,0.102427
6002.766596,0.102704
6002.766437,0.10296
6002.766282,0.103397
6002.766127,0.103608
6002.765969,0.104374
6002.765814,0.104955
6002.765659,0.105506
6002.7655,0.106267
6002.765346,0.107415
6002.765187,0.108597
6002.765032,0.109674
6002.764877,0.110536
6002.764719,0.111737
6002.764564,0.11243
6002.764405,0.113242
6002.76425,0.114004
6002.764095,0.114411
6002.763937,0.115044
6002.763782,0.115076
6002.763623,0.11536
6002.763468,0.115387
6002.763313,0.115559
6002.763155,0.115247
6002.763,0.114785
6002.762845,0.114547
6002.762686,0.113745
6002.762531,0.112355
6002.762373,0.110954
6002.762218,0.109997
6002.762063,0.108957
6002.761904,0.108049
6002.761749,0.107292
6002.761591,0.106589
6002.761436,0.106083
6002.761281,0.105473
6002.761122,0.104898
6002.760968,0.104786
6002.760809,0.10434
6002.760654,0.104419
6002.760499,0.104628
6002.760341,0.104648
6002.760186,0.104769
6002.760031,0.10487
6002.759872,0.104942
6002.759717,0.10521
6002.759559,0.10516
6002.759404,0.105336
6002.759249,0.105322
6002.75909,0.105099
6002.758935,0.104943
6002.758777,0.104582
6002.758622,0.104014
6002.758467,0.103428
6002.758308,0.102771
6002.758153,0.102401
6002.757995,0.102006
6002.75784,0.101799
6002.757685,0.101891
6002.757526,0.102171
6002.757371,0.102516
6002.757216,0.102985
6002.757058,0.103685
6002.756903,0.10457
6002.756744,0.105683
6002.756589,0.107087
6002.756435,0.109386
6002.756276,0.111234
6002.756121,0.113245
6002.755963,0.114603
6002.755808,0.115787
6002.755653,0.116949
6002.755494,0.117169
6002.755339,0.117914
6002.755181,0.118086
6002.755026,0.118164
6002.754871,0.117889
6002.754712,0.117609
6002.754557,0.116931
6002.754402,0.116546
6002.754244,0.115665
6002.754089,0.114602
6002.75393,0.113493
6002.753775,0.112203
6002.75362,0.111551
6002.753462,0.11106
6002.753307,0.110588
6002.753148,0.110195
6002.752993,0.109756
6002.752838,0.109462
6002.75268,0.109306
6002.752525,0.109361
6002.752366,0.109276
6002.752211,0.109465
6002.752057,0.109373
6002.751898,0.109432
6002.751743,0.10962
6002.751588,0.109375
6002.75143,0.109257
6002.751275,0.108874
6002.751116,0.108475
6002.750961,0.108043
6002.750806,0.107433
6002.750648,0.106893
6002.750493,0.106399
6002.750334,0.106196
6002.750179,0.105603
6002.750024,0.105719
6002.749866,0.105643
6002.749711,0.105442
6002.749552,0.105392
6002.749397,0.106022
6002.749242,0.105773
6002.749084,0.106407
6002.748929,0.106768
6002.748774,0.107499
6002.748615,0.108126
6002.74846,0.108914
6002.748302,0.109409
6002.748147,0.110231
6002.747992,0.110881
6002.747833,0.111591
6002.747679,0.112357
6002.74752,0.112801
6002.747365,0.113239
6002.74721,0.113627
6002.747052,0.113761
6002.746897,0.113988
6002.746738,0.114123
6002.746583,0.113905
6002.746428,0.113635
6002.74627,0.113227
6002.746115,0.112871
6002.74596,0.112446
6002.745801,0.112232
6002.745646,0.112138
6002.745488,0.111918
6002.745333,0.111527
6002.745178,0.111452
6002.745019,0.111195
6002.744864,0.11114
6002.744706,0.110876
6002.744551,0.111367
6002.744396,0.111292
6002.744237,0.112061
6002.744082,0.112144
6002.743924,0.112734
6002.743769,0.113173
6002.743614,0.1136
6002.743455,0.113951
6002.743301,0.114474
6002.743146,0.115132
6002.742987,0.115464
6002.742832,0.115871
6002.742674,0.116154
6002.742519,0.116567
6002.742364,0.116159
6002.742205,0.11609
6002.74205,0.116109
6002.741892,0.116121
6002.741737,0.115758
6002.741582,0.115731
6002.741423,0.115381
6002.741268,0.114995
6002.74111,0.114763
6002.740955,0.114129
6002.7408,0.113753
6002.740641,0.113062
6002.740486,0.112662
6002.740331,0.112088
6002.740173,0.111503
6002.740018,0.111119
6002.739859,0.11072
6002.739704,0.110475
6002.739549,0.11031
6002.739391,0.110313
6002.739236,0.110733
6002.739077,0.111135
6002.738923,0.111434
6002.738768,0.111986
6002.738609,0.112857
6002.738454,0.113366
6002.738296,0.113942
6002.738141,0.114603
6002.737986,0.114782
6002.737827,0.114839
6002.737672,0.11501
6002.737517,0.114789
6002.737359,0.114499
6002.737204,0.114349
6002.737045,0.114172
6002.73689,0.113814
6002.736735,0.113395
6002.736577,0.11276
6002.736422,0.112629
6002.736263,0.111945
6002.736108,0.111835
6002.735953,0.111612
6002.735795,0.11146
6002.73564,0.111406
6002.735481,0.111655
6002.735326,0.111867
6002.735171,0.112064
6002.735013,0.111973
6002.734858,0.112121
6002.734703,0.112155
6002.734545,0.112339
6002.73439,0.112318
6002.734231,0.112499
6002.734076,0.112778
6002.733921,0.112851
6002.733763,0.113241
6002.733608,0.113773
6002.733449,0.114409
6002.733294,0.114651
6002.733139,0.114837
6002.732981,0.114998
6002.732826,0.115224
6002.732667,0.115098
6002.732512,0.114931
6002.732357,0.114656
6002.732199,0.11439
6002.732044,0.114043
6002.731889,0.113775
6002.73173,0.113379
6002.731575,0.113167
6002.731417,0.112656
6002.731262,0.112301
6002.731107,0.112212
6002.730948,0.112047
6002.730794,0.111704
6002.730635,0.112839
6002.73048,0.112992
6002.730325,0.113351
6002.730167,0.113742
6002.730012,0.114337
6002.729853,0.115085
6002.729698,0.115819
6002.729543,0.116618
6002.729385,0.117509
6002.72923,0.118414
6002.729075,0.11938
6002.728916,0.120061
6002.728761,0.12081
6002.728603,0.121292
6002.728448,0.121379
6002.728293,0.121755
6002.728134,0.121777
6002.727979,0.121707
6002.727821,0.121508
6002.727666,0.121286
6002.727511,0.120697
6002.727352,0.119681
6002.727197,0.119164
6002.727042,0.118141
6002.726884,0.116949
6002.726729,0.116297
6002.72657,0.11566
6002.726416,0.115191
6002.726261,0.115651
6002.726102,0.115736
6002.725947,0.115918
6002.725789,0.116277
6002.725634,0.116602
6002.725479,0.117009
6002.72532,0.117408
6002.725165,0.117753
6002.725007,0.117956
6002.724852,0.117965
6002.724697,0.118198
6002.724538,0.118048
6002.724383,0.118209
6002.724228,0.117817
6002.72407,0.117672
6002.723915,0.11759
6002.723756,0.117237
6002.723601,0.117132
6002.723446,0.116774
6002.723288,0.116395
6002.723133,0.115705
6002.722974,0.115228
6002.722819,0.114707
6002.722665,0.114622
6002.722506,0.114383
6002.722351,0.1142
6002.722192,0.113867
6002.722038,0.113636
6002.721883,0.113563
6002.721724,0.113256
6002.721569,0.113735
6002.721414,0.113818
6002.721256,0.114327
6002.721101,0.115705
6002.720942,0.11673
6002.720787,0.118156
6002.720632,0.119667
6002.720474,0.121039
6002.720319,0.121856
6002.72016,0.122206
6002.720005,0.122248
6002.71985,0.12214
6002.719692,0.12179
6002.719537,0.120989
6002.719378,0.119896
6002.719223,0.118669
6002.719068,0.11718
6002.71891,0.11567
6002.718755,0.114017
6002.7186,0.112425
6002.718441,0.110918
6002.718287,0.109523
6002.718128,0.10827
6002.717973,0.107367
6002.717818,0.106173
6002.71766,0.105133
6002.717505,0.10428
6002.717346,0.103314
6002.717191,0.102974
6002.717036,0.102813
6002.716878,0.102557
6002.716723,0.102985
6002.716564,0.103417
6002.716409,0.10417
6002.716254,0.105195
6002.716096,0.105891
6002.715941,0.107181
6002.715786,0.108033
6002.715627,0.109669
6002.715472,0.111031
6002.715314,0.112647
6002.715159,0.113997
6002.715004,0.115841
6002.714845,0.117233
6002.714691,0.11839
6002.714532,0.119199
6002.714377,0.120088
6002.714222,0.120787
6002.714064,0.121324
6002.713909,0.121791
6002.71375,0.122216
6002.713595,0.122642
6002.71344,0.122968
6002.713282,0.122837
6002.713127,0.123173
6002.712972,0.123512
6002.712813,0.123892
6002.712658,0.124445
6002.7125,0.125161
6002.712345,0.125779
6002.71219,0.126258
6002.712031,0.127134
6002.711876,0.127925
6002.711718,0.128354
6002.711563,0.128852
6002.711408,0.128787
6002.711249,0.128568
6002.711094,0.12882
6002.710936,0.128744
6002.710781,0.128664
6002.710626,0.128634
6002.710467,0.128349
6002.710313,0.128234
6002.710158,0.127688
6002.709999,0.127451
6002.709844,0.127252
6002.709686,0.127542
6002.709531,0.127945
6002.709376,0.12822
6002.709217,0.12884
6002.709062,0.129301
6002.708904,0.130073
6002.708749,0.130431
6002.708594,0.130932
6002.708435,0.131232
6002.70828,0.131876
6002.708122,0.132418
6002.707967,0.132897
6002.707812,0.134036
6002.707653,0.134758
6002.707498,0.135564
6002.707343,0.136161
6002.707185,0.136707
6002.70703,0.137079
6002.706871,0.13769
6002.706717,0.137815
6002.706562,0.13821
6002.706403,0.138357
6002.706248,0.138307
6002.70609,0.138657
6002.705935,0.138749
6002.70578,0.138397
6002.705621,0.138902
6002.705466,0.138725
6002.705308,0.138649
6002.705153,0.138771
6002.704998,0.138644
6002.704839,0.138711
6002.704684,0.138827
6002.704529,0.138773
6002.704371,0.138975
6002.704216,0.139099
6002.704057,0.139163
6002.703902,0.139356
6002.703747,0.139715
6002.703589,0.140047
6002.703434,0.14081
6002.703275,0.141269
6002.70312,0.141827
6002.702966,0.142108
6002.702807,0.142333
6002.702652,0.142218
6002.702493,0.142334
6002.702339,0.142117
6002.702184,0.142157
6002.702025,0.142188
6002.70187,0.142139
6002.701715,0.1423
6002.701557,0.14245
6002.701402,0.142206
6002.701243,0.142338
6002.701088,0.142347
6002.700933,0.142448
6002.700775,0.142388
6002.70062,0.14264
6002.700461,0.142913
6002.700306,0.143337
6002.700151,0.143523
6002.699993,0.143995
6002.699838,0.143998
6002.699679,0.144233
6002.699524,0.144275
6002.699369,0.143731
6002.699211,0.143702
6002.699056,0.143246
6002.698901,0.142767
6002.698743,0.142383
6002.698588,0.141675
6002.698429,0.141568
6002.698274,0.141055
6002.698119,0.140364
6002.697961,0.140035
6002.697806,0.139794
6002.697647,0.139509
6002.697492,0.139577
6002.697337,0.139371
6002.697179,0.13945
6002.697024,0.139417
6002.696865,0.13916
6002.69671,0.138589
6002.696555,0.138311
6002.696397,0.137928
6002.696242,0.137329
6002.696087,0.13714
6002.695928,0.136535
6002.695773,0.136641
6002.695615,0.136617
6002.69546,0.137045
6002.695305,0.136993
6002.695146,0.13752
6002.694992,0.137977
6002.694833,0.138471
6002.694678,0.139157
6002.694523,0.140038
6002.694365,0.140998
6002.69421,0.142297
6002.694051,0.142956
6002.693896,0.143889
6002.693741,0.14505
6002.693583,0.14583
6002.693428,0.146745
6002.693273,0.147189
6002.693114,0.147942
6002.692959,0.148393
6002.692801,0.148727
6002.692646,0.148744
6002.692491,0.148283
6002.692332,0.147604
6002.692177,0.146684
6002.692019,0.145602
6002.691864,0.144301
6002.691709,0.143345
6002.69155,0.142714
6002.691396,0.142272
6002.691237,0.142463
6002.691082,0.142434
6002.690927,0.142387
6002.690769,0.142542
6002.690614,0.14288
6002.690459,0.14291
6002.6903,0.143246
6002.690145,0.143488
6002.689987,0.1441
6002.689832,0.144939
6002.689677,0.145587
6002.689518,0.146039
6002.689363,0.146777
6002.689205,0.147554
6002.68905,0.148243
6002.688895,0.149056
6002.688736,0.149552
6002.688581,0.150196
6002.688423,0.15088
6002.688268,0.151528
6002.688113,0.151122
6002.687954,0.151095
6002.6878,0.151315
6002.687645,0.151236
6002.687486,0.151066
6002.687331,0.150648
6002.687173,0.150714
6002.687018,0.150813
6002.686863,0.150534
6002.686704,0.150812
6002.686549,0.15101
6002.686391,0.151284
6002.686236,0.151766
6002.686081,0.151933
6002.685922,0.152891
6002.685767,0.153395
6002.685612,0.154836
6002.685454,0.156337
6002.685299,0.157593
6002.68514,0.159355
6002.684985,0.160561
6002.68483,0.161333
6002.684672,0.161793
6002.684517,0.162262
6002.684358,0.162274
6002.684203,0.16256
6002.684049,0.162637
6002.68389,0.162249
6002.683735,0.161545
6002.683577,0.161223
6002.683422,0.160696
6002.683267,0.159841
6002.683108,0.158917
6002.682953,0.158203
6002.682798,0.157311
6002.68264,0.156741
6002.682485,0.156124
6002.682326,0.155623
6002.682171,0.154943
6002.682016,0.154285
6002.681858,0.153969
6002.681703,0.153896
6002.681544,0.154088
6002.681389,0.154196
6002.681234,0.155101
6002.681076,0.155752
6002.680921,0.156375
6002.680762,0.157753
6002.680607,0.158691
6002.680453,0.159618
6002.680294,0.16027
6002.680139,0.16108
6002.679984,0.162175
6002.679826,0.162946
6002.679671,0.163851
6002.679512,0.164381
6002.679357,0.165061
6002.679202,0.165619
6002.679044,0.165734
6002.678889,0.165755
6002.67873,0.165512
6002.678575,0.165223
6002.67842,0.164535
6002.678262,0.16429
6002.678107,0.164017
6002.677948,0.163735
6002.677793,0.163407
6002.677638,0.163769
6002.67748,0.164026
6002.677325,0.164109
6002.67717,0.164617
6002.677011,0.165295
6002.676857,0.166076
6002.676698,0.166923
6002.676543,0.167813
6002.676388,0.168769
6002.67623,0.169797
6002.676075,0.170145
6002.675916,0.170499
6002.675761,0.170735
6002.675606,0.170747
6002.675448,0.171107
6002.675293,0.170767
6002.675134,0.170885
6002.674979,0.170445
6002.674824,0.170099
6002.674666,0.169831
6002.674511,0.168469
6002.674356,0.167668
6002.674197,0.166403
6002.674042,0.165814
6002.673884,0.16573
6002.673729,0.165464
6002.673574,0.165578
6002.673415,0.166107
6002.673261,0.166481
6002.673102,0.166645
6002.672947,0.167236
6002.672792,0.167973
6002.672634,0.168732
6002.672479,0.169016
6002.67232,0.169652
6002.672165,0.170147
6002.67201,0.170947
6002.671852,0.171256
6002.671697,0.171973
6002.671542,0.171901
6002.671383,0.172344
6002.671228,0.172247
6002.67107,0.172507
6002.670915,0.172451
6002.67076,0.172624
6002.670601,0.172387
6002.670446,0.172119
6002.670288,0.171903
6002.670133,0.171393
6002.669978,0.17102
6002.669819,0.170721
6002.669665,0.170128
6002.669506,0.170096
6002.669351,0.169782
6002.669196,0.169763
6002.669038,0.169899
6002.668883,0.169908
6002.668728,0.170334
6002.668569,0.170346
6002.668414,0.170928
6002.668256,0.17125
6002.668101,0.171782
6002.667946,0.172433
6002.667787,0.173319
6002.667632,0.174916
6002.667474,0.176081
6002.667319,0.177293
6002.667164,0.178597
6002.667005,0.179251
6002.66685,0.180045
6002.666692,0.18055
6002.666537,0.181055
6002.666382,0.181178
6002.666223,0.181393
6002.666069,0.181656
6002.665914,0.182284
6002.665755,0.182441
6002.6656,0.183262
6002.665442,0.183498
6002.665287,0.18414
6002.665132,0.185279
6002.664973,0.186023
6002.664818,0.187059
6002.66466,0.188151
6002.664505,0.189543
6002.66435,0.191006
6002.664191,0.192354
6002.664036,0.193464
6002.663878,0.194585
6002.663723,0.19542
6002.663568,0.196418
6002.663409,0.197096
6002.663254,0.198017
6002.663099,0.198556
6002.662941,0.19922
6002.662786,0.199843
6002.662627,0.200257
6002.662473,0.20086
6002.662318,0.201087
6002.662159,0.201338
6002.662004,0.201711
6002.661846,0.202117
6002.661691,0.20283
6002.661536,0.203305
6002.661377,0.204331
6002.661222,0.205084
6002.661064,0.206231
6002.660909,0.207218
6002.660754,0.207795
6002.660595,0.208507
6002.66044,0.208943
6002.660285,0.209561
6002.660127,0.210148
6002.659972,0.210735
6002.659813,0.211497
6002.659658,0.211801
6002.659504,0.212245
6002.659345,0.212419
6002.65919,0.212606
6002.659031,0.212825
6002.658877,0.213101
6002.658722,0.2133
6002.658563,0.213754
6002.658408,0.214173
6002.65825,0.214572
6002.658095,0.214903
6002.65794,0.215172
6002.657781,0.215203
6002.657626,0.215275
6002.657471,0.215072
6002.657313,0.215051
6002.657158,0.214883
6002.656999,0.214211
6002.656844,0.213531
6002.656689,0.212463
6002.656531,0.211143
6002.656376,0.209436
6002.656217,0.207599
6002.656062,0.205841
6002.655908,0.204195
6002.655749,0.203257
6002.655594,0.202276
6002.655436,0.201791
6002.655281,0.20172
6002.655126,0.201571
6002.654967,0.201553
6002.654812,0.201745
6002.654657,0.202227
6002.654499,0.203215
6002.654344,0.203666
6002.654185,0.204576
6002.65403,0.205787
6002.653875,0.206483
6002.653717,0.207331
6002.653562,0.208178
6002.653403,0.20877
6002.653248,0.209347
6002.653093,0.210008
6002.652935,0.209918
6002.65278,0.210315
6002.652621,0.210269
6002.652466,0.210203
6002.652312,0.210259
6002.652153,0.209626
6002.651998,0.209576
6002.651843,0.208988
6002.651685,0.208981
6002.65153,0.208705
6002.651371,0.208576
6002.651216,0.208529
6002.651061,0.208499
6002.650903,0.208599
6002.650748,0.208805
6002.650589,0.208683
6002.650434,0.209495
6002.650279,0.210467
6002.650121,0.211776
6002.649966,0.213399
6002.649807,0.215596
6002.649652,0.217795
6002.649497,0.220916
6002.649339,0.223656
6002.649184,0.226305
6002.649029,0.228644
6002.648871,0.230642
6002.648716,0.232365
6002.648557,0.233959
6002.648402,0.235198
6002.648247,0.235903
6002.648089,0.236917
6002.647934,0.237173
6002.647775,0.237468
6002.64762,0.23766
6002.647465,0.23768
6002.647307,0.237969
6002.647152,0.238296
6002.646993,0.238687
6002.646838,0.239349
6002.646683,0.239418
6002.646525,0.240046
6002.64637,0.240816
6002.646215,0.241072
6002.646056,0.241989
6002.645901,0.242628
6002.645743,0.244015
6002.645588,0.245244
6002.645433,0.246482
6002.645275,0.24769
6002.64512,0.248995
6002.644961,0.249931
6002.644806,0.251069
6002.644651,0.25187
6002.644493,0.252499
6002.644338,0.252921
6002.644183,0.253247
6002.644024,0.253702
6002.643869,0.253805
6002.643711,0.253821
6002.643556,0.253904
6002.643401,0.253839
6002.643242,0.25328
6002.643087,0.252775
6002.642929,0.252466
6002.642774,0.252439
6002.642619,0.25228
6002.64246,0.252235
6002.642306,0.252144
6002.642147,0.252231
6002.641992,0.252524
6002.641837,0.253105
6002.641679,0.253836
6002.641524,0.254933
6002.641369,0.256084
6002.64121,0.257652
6002.641055,0.25898
6002.640897,0.261296
6002.640742,0.262973
6002.640587,0.265409
6002.640428,0.267031
6002.640273,0.268772
6002.640115,0.269924
6002.63996,0.271005
6002.639805,0.272199
6002.639646,0.273106
6002.639491,0.273818
6002.639333,0.274175
6002.639178,0.274326
6002.639023,0.273925
6002.638864,0.273417
6002.63871,0.272703
6002.638555,0.272154
6002.638396,0.27114
6002.638241,0.270291
6002.638083,0.270334
6002.637928,0.270346
6002.637773,0.270344
6002.637614,0.270628
6002.637459,0.270682
6002.637301,0.271497
6002.637146,0.272573
6002.636991,0.273168
6002.636832,0.274313
6002.636677,0.275197
6002.636519,0.276204
6002.636364,0.277148
6002.636209,0.278103
6002.63605,0.278532
6002.635895,0.278967
6002.635741,0.279746
6002.635582,0.279902
6002.635427,0.280037
6002.635269,0.280329
6002.635114,0.280314
6002.634959,0.280635
6002.6348,0.28093
6002.634645,0.280963
6002.634487,0.280722
6002.634332,0.280854
6002.634177,0.281086
6002.634018,0.281155
6002.633863,0.281578
6002.633705,0.282273
6002.63355,0.282625
6002.633395,0.283513
6002.633236,0.284031
6002.633081,0.284766
6002.632926,0.285263
6002.632768,0.286102
6002.632613,0.2866
6002.632454,0.286971
6002.6323,0.287553
6002.632145,0.288057
6002.631986,0.288978
6002.631831,0.290112
6002.631673,0.291423
6002.631518,0.292438
6002.631363,0.293839
6002.631204,0.294595
6002.631049,0.295591
6002.630891,0.296336
6002.630736,0.297431
6002.630581,0.298318
6002.630422,0.299433
6002.630267,0.30007
6002.630112,0.301095
6002.629954,0.301965
6002.629799,0.302636
6002.62964,0.303501
6002.629485,0.30455
6002.629331,0.305449
6002.629172,0.306719
6002.629017,0.308488
6002.628859,0.310107
6002.628704,0.311935
6002.628549,0.314017
6002.62839,0.31569
6002.628235,0.31771
6002.628077,0.319735
6002.627922,0.321376
6002.627767,0.323286
6002.627608,0.325034
6002.627453,0.327006
6002.627298,0.328403
6002.62714,0.330128
6002.626985,0.331058
6002.626826,0.332323
6002.626671,0.332586
6002.626516,0.33291
6002.626358,0.332749
6002.626203,0.333106
6002.626044,0.332409
6002.62589,0.332269
6002.625735,0.331953
6002.625576,0.331434
6002.625421,0.330668
6002.625263,0.329947
6002.625108,0.329394
6002.624953,0.328578
6002.624794,0.32811
6002.624639,0.327732
6002.624484,0.32709
6002.624326,0.326835
6002.624171,0.327123
6002.624012,0.326819
6002.623857,0.327121
6002.623702,0.327574
6002.623544,0.328283
6002.623389,0.329197
6002.62323,0.329925
6002.623075,0.330787
6002.622921,0.332326
6002.622762,0.333659
6002.622607,0.335214
6002.622449,0.336321
6002.622294,0.337436
6002.622139,0.338065
6002.62198,0.339155
6002.621825,0.339929
6002.62167,0.340684
6002.621512,0.341663
6002.621357,0.342398
6002.621198,0.343029
6002.621043,0.343832
6002.620888,0.344208
6002.62073,0.344579
6002.620575,0.345361
6002.620416,0.34599
6002.620261,0.347278
6002.620106,0.349121
6002.619948,0.350658
6002.619793,0.353037
6002.619634,0.355363
6002.61948,0.357718
6002.619325,0.360395
6002.619166,0.362871
6002.619011,0.365491
6002.618856,0.36802
6002.618698,0.370494
6002.618543,0.372996
6002.618384,0.375179
6002.618229,0.37748
6002.618074,0.379604
6002.617916,0.381526
6002.617761,0.383976
6002.617602,0.385909
6002.617447,0.388086
6002.617292,0.390125
6002.617134,0.39191
6002.616979,0.393387
6002.61682,0.395207
6002.616665,0.39694
6002.616511,0.398414
6002.616352,0.400143
6002.616197,0.401534
6002.616042,0.403271
6002.615884,0.405165
6002.615729,0.407096
6002.61557,0.408505
6002.615415,0.41022
6002.61526,0.412421
6002.615102,0.414524
6002.614947,0.416664
6002.614788,0.418979
6002.614633,0.421638
6002.614478,0.424403
6002.61432,0.42749
6002.614165,0.430762
6002.614006,0.434119
6002.613851,0.438025
6002.613696,0.44168
6002.613538,0.445801
6002.613383,0.449011
6002.613228,0.452134
6002.61307,0.454909
6002.612915,0.4577
6002.612756,0.459773
6002.612601,0.462129
6002.612446,0.464121
6002.612288,0.465813
6002.612133,0.467685
6002.611974,0.468806
6002.611819,0.47025
6002.611664,0.471151
6002.611506,0.472483
6002.611351,0.474016
6002.611192,0.475198
6002.611037,0.476282
6002.610882,0.477396
6002.610724,0.478301
6002.610569,0.479594
6002.610414,0.480791
6002.610255,0.481815
6002.610101,0.483156
6002.609942,0.484526
6002.609787,0.486128
6002.609632,0.488164
6002.609474,0.490503
6002.609319,0.492425
6002.60916,0.494407
6002.609005,0.496138
6002.60885,0.498005
6002.608692,0.499796
6002.608537,0.501376
6002.608378,0.50261
6002.608223,0.503901
6002.608068,0.504804
6002.60791,0.505809
6002.607755,0.506749
6002.6076,0.507328
6002.607441,0.507877
6002.607286,0.508349
6002.607128,0.508637
6002.606973,0.508774
6002.606818,0.50905
6002.60666,0.509388
6002.606505,0.5103
6002.606346,0.511176
6002.606191,0.512644
6002.606036,0.513972
6002.605878,0.515513
6002.605723,0.517789
6002.605564,0.520253
6002.605409,0.522886
6002.605254,0.525962
6002.605096,0.529062
6002.604941,0.532228
6002.604786,0.535605
6002.604627,0.538634
6002.604472,0.541022
6002.604314,0.543291
6002.604159,0.545581
6002.604004,0.548374
6002.603846,0.550101
6002.603691,0.552843
6002.603532,0.55497
6002.603377,0.557619
6002.603222,0.559641
6002.603064,0.561407
6002.602909,0.563126
6002.602754,0.564817
6002.602595,0.566353
6002.60244,0.56812
6002.602282,0.569929
6002.602127,0.571973
6002.601972,0.573643
6002.601813,0.575623
6002.601658,0.577189
6002.6015,0.578807
6002.601345,0.580433
6002.60119,0.582104
6002.601031,0.584419
6002.600877,0.585913
6002.600718,0.588641
6002.600563,0.591314
6002.600408,0.594267
6002.60025,0.596894
6002.600095,0.599989
6002.59994,0.602694
6002.599781,0.605623
6002.599626,0.608237
6002.599468,0.610698
6002.599313,0.613393
6002.599158,0.615752
6002.598999,0.618326
6002.598844,0.620553
6002.598686,0.622795
6002.598531,0.624708
6002.598376,0.626507
6002.598217,0.627984
6002.598063,0.629354
6002.597904,0.630629
6002.597749,0.631938
6002.597594,0.633017
6002.597436,0.634354
6002.597281,0.635713
6002.597126,0.6377
6002.596967,0.63952
6002.596812,0.641508
6002.596654,0.643416
6002.596499,0.64571
6002.596344,0.648182
6002.596185,0.650816
6002.59603,0.654009
6002.595872,0.657722
6002.595717,0.661182
6002.595562,0.665166
6002.595403,0.668887
6002.595248,0.672289
6002.59509,0.675091
6002.594935,0.678616
6002.59478,0.681747
6002.594622,0.685089
6002.594467,0.688416
6002.594312,0.691591
6002.594153,0.694779
6002.593998,0.697917
6002.59384,0.701047
6002.593685,0.704066
6002.59353,0.706787
6002.593371,0.710354
6002.593216,0.713384
6002.593058,0.717392
6002.592903,0.721614
6002.592748,0.725504
6002.592589,0.729847
6002.592434,0.733652
6002.592276,0.738051
6002.592121,0.741859
6002.591966,0.74611
6002.591807,0.750154
6002.591653,0.754332
6002.591498,0.758707
6002.591339,0.763378
6002.591184,0.76769
6002.591026,0.772445
6002.590871,0.776757
6002.590716,0.780935
6002.590557,0.785067
6002.590402,0.788948
6002.590244,0.792875
6002.590089,0.796444
6002.589934,0.800243
6002.589775,0.804142
6002.58962,0.807524
6002.589462,0.811895
6002.589307,0.815888
6002.589152,0.819707
6002.588993,0.823772
6002.588839,0.828237
6002.588684,0.83208
6002.588525,0.836531
6002.58837,0.841657
6002.588212,0.846623
6002.588057,0.852773
6002.587902,0.858744
6002.587743,0.865173
6002.587588,0.871199
6002.58743,0.877868
6002.587275,0.884334
6002.58712,0.891116
6002.586961,0.89839
6002.586806,0.905313
6002.586648,0.91194
6002.586493,0.91914
6002.586338,0.9267
6002.586179,0.933477
6002.586025,0.939878
6002.58587,0.946632
6002.585711,0.951939
6002.585556,0.957413
6002.585398,0.962931
6002.585243,0.967199
6002.585088,0.970674
6002.584929,0.974304
6002.584774,0.976715
6002.584616,0.978635
6002.584461,0.979424
6002.584306,0.981538
6002.584147,0.983051
6002.583992,0.984721
6002.583834,0.988201
6002.583679,0.991158
6002.583524,0.995435
6002.583365,0.999828
6002.58321,1.004006
6002.583056,1.009078
6002.582897,1.013996
6002.582742,1.019087
6002.582584,1.02446
6002.582429,1.028889
6002.582274,1.034348
6002.582115,1.03921
6002.58196,1.044331
6002.581802,1.050188
6002.581647,1.055708
6002.581492,1.060849
6002.581333,1.066245
6002.581178,1.0719
6002.58102,1.077798
6002.580865,1.082617
6002.58071,1.087917
6002.580551,1.092821
6002.580396,1.097884
6002.580242,1.10302
6002.580083,1.108441
6002.579928,1.113411
6002.57977,1.119055
6002.579615,1.124742
6002.57946,1.129981
6002.579301,1.13551
6002.579146,1.140698
6002.578988,1.146639
6002.578833,1.152356
6002.578678,1.158418
6002.578519,1.164346
6002.578364,1.171264
6002.578206,1.177592
6002.578051,1.183893
6002.577896,1.191449
6002.577737,1.198141
6002.577582,1.206614
6002.577428,1.214613
6002.577269,1.221806
6002.577114,1.229468
6002.576956,1.235461
6002.576801,1.241326
6002.576646,1.245745
6002.576487,1.248915
6002.576332,1.251911
6002.576174,1.25397
6002.576019,1.255793
6002.575864,1.258202
6002.575705,1.260767
6002.57555,1.263886
6002.575392,1.268399
6002.575237,1.2729
6002.575082,1.278321
6002.574923,1.283436
6002.574768,1.286977
6002.574613,1.293576
6002.574455,1.298539
6002.5743,1.30331
6002.574141,1.30777
6002.573987,1.31236
6002.573832,1.317099
6002.573673,1.322021
6002.573518,1.326153
6002.57336,1.331351
6002.573205,1.336262
6002.57305,1.34204
6002.572891,1.346858
6002.572736,1.352755
6002.572578,1.359244
6002.572423,1.365363
6002.572268,1.371761
6002.572109,1.377359
6002.571954,1.383748
6002.571799,1.389106
6002.571641,1.394258
6002.571486,1.399694
6002.571327,1.403865
6002.571173,1.406525
6002.571018,1.410878
6002.570859,1.413449
6002.570704,1.416415
6002.570546,1.420564
6002.570391,1.423455
6002.570236,1.427541
6002.570077,1.429336
6002.569922,1.433275
6002.569764,1.43736
6002.569609,1.440256
6002.569454,1.443938
6002.569295,1.447515
6002.56914,1.451577
6002.568985,1.455003
6002.568827,1.458975
6002.568672,1.461696
6002.568513,1.465758
6002.568359,1.46809
6002.568204,1.470668
6002.568045,1.47118
6002.56789,1.474582
6002.567732,1.475767
6002.567577,1.478943
6002.567422,1.480861
6002.567263,1.481923
6002.567108,1.481802
6002.56695,1.481123
6002.566795,1.481436
6002.56664,1.481115
6002.566481,1.480505
6002.566326,1.48068
6002.566171,1.481482
6002.566013,1.480714
6002.565858,1.48199
6002.565699,1.482765
6002.565545,1.482166
6002.56539,1.483624
6002.565231,1.484098
6002.565076,1.484891
6002.564918,1.485481
6002.564763,1.486675
6002.564608,1.486747
6002.564449,1.487605
6002.564294,1.488677
6002.564136,1.488884
6002.563981,1.488509
6002.563826,1.489077
6002.563667,1.488672
6002.563512,1.489855
6002.563357,1.490888
6002.563199,1.491897
6002.563044,1.493372
6002.562885,1.494162
6002.562731,1.494173
6002.562576,1.492794
6002.562417,1.492995
6002.562262,1.490639
6002.562104,1.487888
6002.561949,1.484864
6002.561794,1.482308
6002.561635,1.479943
6002.56148,1.476356
6002.561325,1.471317
6002.561167,1.467067
6002.561012,1.46369
6002.560853,1.459014
6002.560698,1.454896
6002.560543,1.451854
6002.560385,1.448084
6002.56023,1.446145
6002.560071,1.44355
6002.559917,1.442792
6002.559762,1.440854
6002.559603,1.439542
6002.559448,1.43716
6002.55929,1.435586
6002.559135,1.434465
6002.55898,1.431832
6002.558821,1.428944
6002.558666,1.426346
6002.558511,1.423511
6002.558353,1.420375
6002.558198,1.417428
6002.558039,1.413142
6002.557884,1.409916
6002.557729,1.405875
6002.557571,1.401852
6002.557416,1.399666
6002.557257,1.396278
6002.557103,1.394939
6002.556948,1.392419
6002.556789,1.390287
6002.556634,1.38881
6002.556476,1.386954
6002.556321,1.38516
6002.556166,1.382158
6002.556007,1.380413
6002.555852,1.378457
6002.555697,1.375996
6002.555539,1.374843
6002.555384,1.373346
6002.555225,1.371615
6002.55507,1.37031
6002.554915,1.368475
6002.554757,1.36659
6002.554602,1.36526
6002.554443,1.36332
6002.554289,1.361185
6002.554134,1.359423
6002.553975,1.357755
6002.55382,1.355886
6002.553662,1.354099
6002.553507,1.351105
6002.553352,1.348922
6002.553193,1.346259
6002.553038,1.34255
6002.552883,1.33984
6002.552725,1.336084
6002.55257,1.333076
6002.552411,1.329888
6002.552256,1.326382
6002.552101,1.322726
6002.551943,1.319393
6002.551788,1.316663
6002.551629,1.313914
6002.551475,1.312011
6002.55132,1.309244
6002.551161,1.307144
6002.551006,1.305138
6002.550848,1.304269
6002.550693,1.301845
6002.550538,1.300228
6002.550379,1.298081
6002.550224,1.295804
6002.550069,1.293136
6002.549911,1.289548
6002.549756,1.28669
6002.549597,1.282864
6002.549442,1.278986
6002.549287,1.275542
6002.549129,1.270354
6002.548974,1.264522
6002.548815,1.257947
6002.548661,1.252036
6002.548506,1.246029
6002.548347,1.241922
6002.548192,1.236998
6002.548034,1.233399
6002.547879,1.229749
6002.547724,1.226671
6002.547565,1.224189
6002.54741,1.22181
6002.547255,1.220622
6002.547097,1.218977
6002.546942,1.218741
6002.546783,1.217316
6002.546628,1.215998
6002.546473,1.214744
6002.546315,1.21363
6002.54616,1.212588
6002.546001,1.211387
6002.545847,1.208916
6002.545692,1.207795
6002.545533,1.206553
6002.545378,1.204318
6002.54522,1.202212
6002.545065,1.19999
6002.54491,1.198163
6002.544751,1.195297
6002.544596,1.193364
6002.544441,1.190719
6002.544283,1.187679
6002.544128,1.184485
6002.543969,1.181892
6002.543814,1.17878
6002.54366,1.175827
6002.543501,1.172552
6002.543346,1.169634
6002.543188,1.166591
6002.543033,1.162882
6002.542878,1.160679
6002.542719,1.15801
6002.542564,1.155995
6002.542406,1.153793
6002.542251,1.152803
6002.542096,1.152216
6002.541937,1.151858
6002.541782,1.152536
6002.541627,1.151513
6002.541469,1.151623
6002.541314,1.151859
6002.541155,1.150846
6002.541,1.149783
6002.540846,1.14796
6002.540687,1.145165
6002.540532,1.141707
6002.540374,1.138799
6002.540219,1.135151
6002.540064,1.131962
6002.539905,1.129427
6002.53975,1.125803
6002.539592,1.123049
6002.539437,1.121693
6002.539282,1.119118
6002.539123,1.117765
6002.538968,1.116722
6002.538813,1.115996
6002.538655,1.11464
6002.5385,1.113584
6002.538341,1.112964
6002.538186,1.112267
6002.538032,1.111567
6002.537873,1.110888
6002.537718,1.110571
6002.53756,1.110468
6002.537405,1.109695
6002.53725,1.109517
6002.537091,1.109521
6002.536936,1.108325
6002.536778,1.10749
6002.536623,1.106125
6002.536468,1.104412
6002.536309,1.102683
6002.536154,1.099897
6002.535999,1.09782
6002.535841,1.095049
6002.535686,1.092489
6002.535527,1.089691
6002.535372,1.087129
6002.535218,1.084488
6002.535059,1.08266
6002.534904,1.080224
6002.534746,1.079267
6002.534591,1.078703
6002.534436,1.077618
6002.534277,1.077784
6002.534122,1.078136
6002.533964,1.078212
6002.533809,1.079662
6002.533654,1.081167
6002.533495,1.083319
6002.53334,1.086278
6002.533185,1.089781
6002.533027,1.093155
6002.532872,1.097033
6002.532713,1.101417
6002.532559,1.105226
6002.532404,1.108212
6002.532245,1.111293
6002.53209,1.113949
6002.531932,1.116308
6002.531777,1.118371
6002.531622,1.120589
6002.531463,1.122173
6002.531308,1.123678
6002.53115,1.124781
6002.530995,1.125609
6002.53084,1.125376
6002.530681,1.125475
6002.530526,1.126422
6002.530371,1.126632
6002.530213,1.127706
6002.530058,1.128793
6002.529899,1.129683
6002.529745,1.131428
6002.52959,1.132654
6002.529431,1.133833
6002.529276,1.135604
6002.529118,1.137027
6002.528963,1.138986
6002.528808,1.140569
6002.528649,1.141792
6002.528494,1.144278
6002.528336,1.145963
6002.528181,1.147364
6002.528026,1.149223
6002.527867,1.15063
6002.527712,1.153007
6002.527558,1.154547
6002.527399,1.156232
6002.527244,1.157397
6002.527086,1.159546
6002.526931,1.161394
6002.526776,1.163246
6002.526617,1.164872
6002.526462,1.167086
6002.526304,1.168048
6002.526149,1.16962
6002.525994,1.171099
6002.525835,1.17242
6002.52568,1.17532
6002.525522,1.176886
6002.525367,1.178997
6002.525212,1.181977
6002.525053,1.183473
6002.524898,1.186849
6002.524744,1.189196
6002.524585,1.192356
6002.52443,1.194612
6002.524272,1.19711
6002.524117,1.201481
6002.523962,1.204394
6002.523803,1.208484
6002.523648,1.211491
6002.52349,1.216038
6002.523335,1.218901
6002.52318,1.221358
6002.523021,1.223188
6002.522866,1.224877
6002.522708,1.225852
6002.522553,1.226647
6002.522398,1.22759
6002.522239,1.227928
6002.522085,1.22811
6002.52193,1.22709
6002.521771,1.227928
6002.521616,1.227147
6002.521458,1.226661
6002.521303,1.227354
6002.521148,1.228339
6002.520989,1.229899
6002.520834,1.231923
6002.520676,1.233431
6002.520521,1.235498
6002.520366,1.238165
6002.520207,1.240808
6002.520052,1.244435
6002.519897,1.247932
6002.519739,1.251336
6002.519584,1.255027
6002.519425,1.259357
6002.519271,1.263292
6002.519116,1.266368
6002.518957,1.269997
6002.518802,1.273859
6002.518644,1.276736
6002.518489,1.279506
6002.518334,1.28262
6002.518175,1.283981
6002.51802,1.286748
6002.517862,1.288809
6002.517707,1.291621
6002.517552,1.294215
6002.517393,1.297339
6002.517238,1.29947
6002.517084,1.302094
6002.516925,1.304139
6002.51677,1.307509
6002.516612,1.309153
6002.516457,1.312762
6002.516302,1.315164
6002.516143,1.318337
6002.515988,1.320719
6002.51583,1.323725
6002.515675,1.327032
6002.51552,1.330126
6002.515361,1.334239
6002.515206,1.337062
6002.515048,1.341136
6002.514893,1.345927
6002.514738,1.351017
6002.514579,1.356723
6002.514424,1.362608
6002.51427,1.368501
6002.514111,1.373674
6002.513956,1.379823
6002.513798,1.384796
6002.513643,1.388461
6002.513488,1.392582
6002.513329,1.394709
6002.513174,1.397821
6002.513016,1.399693
6002.512861,1.401146
6002.512706,1.401977
6002.512547,1.402125
6002.512392,1.402415
6002.512234,1.40287
6002.512079,1.402935
6002.511924,1.404116
6002.511765,1.405374
6002.511611,1.40723
6002.511456,1.409827
6002.511297,1.411084
6002.511142,1.414468
6002.510984,1.417152
6002.510829,1.420437
6002.510674,1.424091
6002.510515,1.426812
6002.51036,1.43179
6002.510202,1.436304
6002.510047,1.440246
6002.509892,1.445477
6002.509733,1.451315
6002.509578,1.458272
6002.50942,1.465027
6002.509265,1.473297
6002.50911,1.479416
6002.508952,1.487562
6002.508797,1.494432
6002.508642,1.502045
6002.508483,1.508444
6002.508328,1.514891
6002.50817,1.51934
6002.508015,1.525326
6002.50786,1.528969
6002.507701,1.533384
6002.507546,1.537233
6002.507388,1.54151
6002.507233,1.542822
6002.507078,1.545468
6002.506919,1.546522
6002.506764,1.548217
6002.506606,1.549456
6002.506451,1.551178
6002.506296,1.552638
6002.506138,1.55286
6002.505983,1.554987
6002.505828,1.556359
6002.505669,1.560656
6002.505514,1.563964
6002.505356,1.569109
6002.505201,1.574161
6002.505046,1.581092
6002.504887,1.587861
6002.504732,1.596331
6002.504574,1.604555
6002.504419,1.612921
6002.504264,1.620057
6002.504105,1.62636
6002.503951,1.632526
6002.503792,1.63796
6002.503637,1.643305
6002.503482,1.648535
6002.503324,1.652843
6002.503169,1.656768
6002.503014,1.659966
6002.502855,1.661165
6002.5027,1.662721
6002.502542,1.664112
6002.502387,1.664882
6002.502232,1.664995
6002.502073,1.663718
6002.501918,1.664524
6002.50176,1.664739
6002.501605,1.667383
6002.50145,1.667704
6002.501292,1.669493
6002.501137,1.672115
6002.500978,1.674145
6002.500823,1.674634
6002.500668,1.675403
6002.50051,1.675491
6002.500355,1.673661
6002.5002,1.672132
6002.500041,1.670885
6002.499886,1.668187
6002.499728,1.663777
6002.499573,1.660599
6002.499418,1.656351
6002.499259,1.651577
6002.499104,1.647475
6002.498946,1.642232
6002.498791,1.639122
6002.498636,1.634642
6002.498478,1.631077
6002.498323,1.627499
6002.498164,1.625359
6002.498009,1.623005
6002.497854,1.622767
6002.497696,1.623135
6002.497541,1.623421
6002.497386,1.62382
6002.497227,1.625083
6002.497072,1.626727
6002.496914,1.629274
6002.496759,1.631531
6002.496604,1.634119
6002.496445,1.635001
6002.496291,1.636887
6002.496132,1.638487
6002.495977,1.640393
6002.495822,1.640097
6002.495664,1.64026
6002.495509,1.641406
6002.49535,1.642066
6002.495195,1.643784
6002.49504,1.64261
6002.494882,1.643005
6002.494727,1.642084
6002.494572,1.64089
6002.494413,1.639533
6002.494258,1.637606
6002.4941,1.637779
6002.493945,1.637293
6002.49379,1.636276
6002.493632,1.635988
6002.493477,1.635978
6002.493318,1.636535
6002.493163,1.636925
6002.493008,1.636354
6002.49285,1.636826
6002.492695,1.637445
6002.492536,1.638261
6002.492381,1.638778
6002.492226,1.63878
6002.492068,1.63897
6002.491913,1.639064
6002.491758,1.638712
6002.491599,1.638233
6002.491445,1.638508
6002.491286,1.636578
6002.491131,1.635334
6002.490976,1.633212
6002.490818,1.63021
6002.490663,1.627811
6002.490504,1.622889
6002.490349,1.619581
6002.490194,1.615351
6002.490036,1.611439
6002.489881,1.607417
6002.489722,1.603575
6002.489567,1.600129
6002.489412,1.596208
6002.489254,1.592093
6002.489099,1.587637
6002.488944,1.584641
6002.488786,1.580518
6002.488631,1.576878
6002.488472,1.572297
6002.488317,1.568172
6002.488162,1.56397
6002.488004,1.560108
6002.487849,1.55688
6002.48769,1.554091
6002.487535,1.550512
6002.48738,1.54884
6002.487222,1.5463
6002.487067,1.542477
6002.486908,1.540437
6002.486753,1.536115
6002.486599,1.531344
6002.48644,1.526521
6002.486285,1.522071
6002.48613,1.516284
6002.485972,1.511135
6002.485817,1.50528
6002.485658,1.498082
6002.485503,1.491486
6002.485348,1.482701
6002.48519,1.475524
6002.485035,1.467667
6002.484876,1.460235
6002.484721,1.452938
6002.484566,1.445104
6002.484408,1.4381
6002.484253,1.43072
6002.484094,1.423536
6002.48394,1.417769
6002.483785,1.411224
6002.483626,1.406064
6002.483471,1.400198
6002.483316,1.394765
6002.483158,1.389738
6002.483003,1.384644
6002.482844,1.378744
6002.482689,1.37286
6002.482534,1.366927
6002.482376,1.360367
6002.482221,1.354305
6002.482062,1.346855
6002.481907,1.339865
6002.481752,1.332659
6002.481594,1.324728
6002.481439,1.317368
6002.481281,1.310651
6002.481126,1.302452
6002.480971,1.295719
6002.480812,1.28751
6002.480657,1.281165
6002.480502,1.272945
6002.480344,1.266636
6002.480189,1.260243
6002.48003,1.253415
6002.479875,1.248467
6002.47972,1.242829
6002.479562,1.23811
6002.479407,1.232585
6002.479248,1.228579
6002.479093,1.223958
6002.478939,1.221472
6002.47878,1.218
6002.478625,1.215901
6002.47847,1.214523
6002.478312,1.2128
6002.478157,1.211471
6002.477998,1.210059
6002.477843,1.20889
6002.477688,1.207161
6002.47753,1.205625
6002.477375,1.20299
6002.477216,1.199736
6002.477061,1.196041
6002.476906,1.190721
6002.476748,1.186162
6002.476593,1.180277
6002.476434,1.174091
6002.47628,1.167623
6002.476125,1.161176
6002.475966,1.154807
6002.475811,1.149302
6002.475656,1.143221
6002.475498,1.137648
6002.475343,1.131585
6002.475184,1.126143
6002.475029,1.121038
6002.474874,1.114817
6002.474716,1.108819
6002.474561,1.102788
6002.474402,1.09651
6002.474247,1.089489
6002.474093,1.082854
6002.473934,1.076426
6002.473779,1.069641
6002.473621,1.063698
6002.473466,1.0581
6002.473311,1.051803
6002.473152,1.047142
6002.472997,1.041828
6002.472842,1.037628
6002.472684,1.032874
6002.472529,1.028887
6002.47237,1.024346
6002.472215,1.020379
6002.47206,1.016337
6002.471902,1.012579
6002.471747,1.008463
6002.471589,1.004226
6002.471434,0.999622
6002.471279,0.995373
6002.47112,0.990156
6002.470965,0.984786
6002.470807,0.978959
6002.470652,0.973428
6002.470497,0.967609
6002.470338,0.962142
6002.470183,0.956052
6002.470028,0.950327
6002.46987,0.944634
6002.469715,0.938558
6002.469556,0.932671
6002.469402,0.926384
6002.469247,0.921481
6002.469088,0.915591
6002.468933,0.910004
6002.468775,0.904979
6002.46862,0.899478
6002.468465,0.894183
6002.468306,0.889118
6002.468151,0.883342
6002.467993,0.877305
6002.467838,0.870866
6002.467683,0.865315
6002.467524,0.859871
6002.467369,0.853874
6002.467215,0.849003
6002.467056,0.843915
6002.466901,0.839469
6002.466743,0.835416
6002.466588,0.830832
6002.466433,0.826675
6002.466274,0.8225
6002.466119,0.818493
6002.465961,0.814193
6002.465806,0.810466
6002.465651,0.806661
6002.465492,0.802521
6002.465337,0.799045
6002.465179,0.794707
6002.465024,0.790973
6002.464869,0.786962
6002.46471,0.783446
6002.464556,0.77956
6002.464401,0.776097
6002.464242,0.772376
6002.464087,0.76919
6002.463929,0.765809
6002.463774,0.762182
6002.463619,0.759038
6002.46346,0.756089
6002.463305,0.752834
6002.463147,0.7497
6002.462992,0.747134
6002.462837,0.744285
6002.462678,0.742009
6002.462523,0.739803
6002.462365,0.737839
6002.46221,0.736077
6002.462055,0.73424
6002.461897,0.732658
6002.461742,0.731266
6002.461587,0.72977
6002.461428,0.727864
6002.461273,0.72639
6002.461115,0.724713
6002.46096,0.722717
6002.460805,0.720572
6002.460646,0.718887
6002.460491,0.71673
6002.460333,0.714897
6002.460178,0.712292
6002.460023,0.710321
6002.459864,0.707583
6002.45971,0.704441
6002.459551,0.70117
6002.459396,0.698308
6002.459241,0.694514
6002.459083,0.691402
6002.458928,0.688127
6002.458773,0.685075
6002.458614,0.681247
6002.458459,0.678086
6002.458301,0.674047
6002.458146,0.670924
6002.457991,0.667588
6002.457832,0.66423
6002.457677,0.661344
6002.457519,0.658611
6002.457364,0.655558
6002.457209,0.652817
6002.457051,0.650895
6002.456896,0.648405
6002.456737,0.646207
6002.456582,0.644193
6002.456427,0.641826
6002.456269,0.640039
6002.456114,0.637634
6002.455959,0.635587
6002.4558,0.632992
6002.455645,0.630291
6002.455487,0.627446
6002.455332,0.624432
6002.455177,0.621259
6002.455019,0.618302
6002.454864,0.614964
6002.454705,0.611692
6002.45455,0.608357
6002.454395,0.604655
6002.454237,0.60065
6002.454082,0.596828
6002.453923,0.592692
6002.453768,0.588899
6002.453613,0.584829
6002.453455,0.580595
6002.4533,0.577257
6002.453145,0.573182
6002.452986,0.56948
6002.452832,0.566063
6002.452673,0.562863
6002.452518,0.559576
6002.452363,0.556624
6002.452205,0.553758
6002.45205,0.551128
6002.451891,0.548771
6002.451736,0.546355
6002.451581,0.544277
6002.451423,0.542294
6002.451268,0.54059
6002.451109,0.538232
6002.450954,0.537112
6002.450799,0.535378
6002.450641,0.534537
6002.450486,0.533131
6002.450331,0.531805
6002.450173,0.530549
6002.450018,0.528512
6002.449859,0.526715
6002.449704,0.524168
6002.449549,0.522029
6002.449391,0.519701
6002.449236,0.517101
6002.449077,0.513997
6002.448922,0.511636
6002.448767,0.509164
6002.448609,0.50732
6002.448454,0.505461
6002.448295,0.503655
6002.44814,0.502147
6002.447986,0.500941
6002.447827,0.49947
6002.447672,0.498173
6002.447517,0.49693
6002.447359,0.495712
6002.447204,0.49395
6002.447045,0.492545
6002.44689,0.49113
6002.446735,0.489705
6002.446577,0.487672
6002.446422,0.486145
6002.446263,0.484107
6002.446108,0.48217
6002.445954,0.480312
6002.445795,0.47826
6002.44564,0.475608
6002.445482,0.473498
6002.445327,0.471132
6002.445172,0.468759
6002.445013,0.466321
6002.444858,0.464171
6002.444703,0.461881
6002.444545,0.459893
6002.44439,0.457426
6002.444231,0.455271
6002.444076,0.452995
6002.443921,0.450949
6002.443763,0.448864
6002.443608,0.446694
6002.443449,0.444566
6002.443295,0.442559
6002.44314,0.440199
6002.442981,0.438437
6002.442826,0.436694
6002.442668,0.435083
6002.442513,0.433381
6002.442358,0.431659
6002.442199,0.430336
6002.442044,0.428521
6002.441889,0.427309
6002.441731,0.425861
6002.441576,0.424395
6002.441417,0.422849
6002.441262,0.421794
6002.441108,0.420562
6002.440949,0.418898
6002.440794,0.417417
6002.440636,0.416024
6002.440481,0.414489
6002.440326,0.412994
6002.440167,0.410783
6002.440012,0.408839
6002.439854,0.406588
6002.439699,0.404414
6002.439544,0.402131
6002.439385,0.400095
6002.43923,0.397878
6002.439076,0.396348
6002.438917,0.395041
6002.438762,0.393664
6002.438604,0.392796
6002.438449,0.392454
6002.438294,0.39208
6002.438135,0.391774
6002.43798,0.391294
6002.437822,0.390784
6002.437667,0.390321
6002.437512,0.389647
6002.437353,0.389045
6002.437198,0.388671
6002.437043,0.388097
6002.436885,0.387132
6002.43673,0.386551
6002.436571,0.385863
6002.436417,0.384757
6002.436262,0.383378
6002.436103,0.382118
6002.435948,0.380709
6002.43579,0.378985
6002.435635,0.377607
6002.43548,0.376285
6002.435321,0.375058
6002.435166,0.373408
6002.435008,0.372429
6002.434853,0.370988
6002.434698,0.369678
6002.434539,0.368567
6002.434385,0.367177
6002.43423,0.365531
6002.434071,0.363986
6002.433916,0.361755
6002.433758,0.360329
6002.433603,0.358425
6002.433448,0.356642
6002.433289,0.354508
6002.433134,0.352688
6002.432976,0.350466
6002.432821,0.34845
6002.432666,0.346449
6002.432507,0.344663
6002.432352,0.343172
6002.432194,0.34151
6002.432039,0.339948
6002.431884,0.339028
6002.431726,0.337555
6002.431571,0.335912
6002.431416,0.333731
6002.431257,0.33165
6002.431102,0.329734
6002.430944,0.327739
6002.430789,0.325876
6002.430634,0.323887
6002.430475,0.3221
6002.43032,0.320188
6002.430162,0.318771
6002.430007,0.317118
6002.429852,0.315713
6002.429694,0.314825
6002.429539,0.313834
6002.42938,0.313092
6002.429225,0.312291
6002.42907,0.311716
6002.428912,0.310596
6002.428757,0.309726
6002.428602,0.308386
6002.428443,0.307254
6002.428288,0.305917
6002.42813,0.304728
6002.427975,0.30326
6002.42782,0.301453
6002.427661,0.3
6002.427507,0.298202
6002.427348,0.29674
6002.427193,0.294763
6002.427038,0.292806
6002.42688,0.290829
6002.426725,0.289198
6002.426566,0.287554
6002.426411,0.286177
6002.426256,0.285046
6002.426098,0.283362
6002.425943,0.282155
6002.425788,0.280784
6002.425629,0.279512
6002.425474,0.278413
6002.425316,0.277281
6002.425161,0.276502
6002.425006,0.275783
6002.424848,0.275258
6002.424693,0.274811
6002.424534,0.274481
6002.424379,0.274949
6002.424224,0.274382
6002.424066,0.274291
6002.423911,0.274283
6002.423752,0.274273
6002.423597,0.274053
6002.423442,0.273867
6002.423284,0.273435
6002.423129,0.272935
6002.422974,0.271856
6002.422816,0.270661
6002.422661,0.268942
6002.422502,0.267282
6002.422347,0.265828
6002.422192,0.264249
6002.422034,0.262633
6002.421879,0.261069
6002.42172,0.259997
6002.421565,0.258286
6002.42141,0.257101
6002.421252,0.255961
6002.421097,0.255142
6002.420938,0.254179
6002.420784,0.253688
6002.420629,0.252976
6002.42047,0.252753
6002.420315,0.252407
6002.42016,0.252041
6002.420002,0.252076
6002.419847,0.252054
6002.419688,0.251967
6002.419533,0.252203
6002.419378,0.251915
6002.41922,0.251958
6002.419065,0.251934
6002.418906,0.2519
6002.418751,0.251252
6002.418597,0.251106
6002.418438,0.249921
6002.418283,0.248982
6002.418125,0.247775
6002.41797,0.246453
6002.417815,0.24472
6002.417656,0.242786
6002.417501,0.241371
6002.417346,0.239542
6002.417188,0.237846
6002.417033,0.236423
6002.416874,0.234611
6002.416719,0.233446
6002.416565,0.232143
6002.416406,0.231194
6002.416251,0.230303
6002.416093,0.229604
6002.415938,0.229321
6002.415783,0.228945
6002.415624,0.228676
6002.415469,0.228647
6002.415311,0.228335
6002.415156,0.228286
6002.415001,0.227933
6002.414842,0.227946
6002.414687,0.227621
6002.414532,0.227681
6002.414374,0.227195
6002.414219,0.226864
6002.41406,0.226437
6002.413906,0.225719
6002.413751,0.225423
6002.413592,0.22442
6002.413437,0.223379
6002.413279,0.222719
6002.413124,0.221758
6002.412969,0.220907
6002.41281,0.21986
6002.412655,0.218963
6002.412497,0.218531
6002.412342,0.217601
6002.412187,0.216839
6002.412028,0.215852
6002.411874,0.214727
6002.411719,0.213431
6002.41156,0.212531
6002.411405,0.21158
6002.411247,0.210697
6002.411092,0.209759
6002.410937,0.209175
6002.410778,0.208925
6002.410623,0.208251
6002.410465,0.207786
6002.41031,0.207151
6002.410155,0.206465
6002.409996,0.205627
6002.409842,0.20433
6002.409683,0.203104
6002.409528,0.201891
6002.409373,0.200453
6002.409215,0.199009
6002.40906,0.197503
6002.408905,0.195602
6002.408746,0.194233
6002.408591,0.192498
6002.408433,0.190934
6002.408278,0.189648
6002.408123,0.188299
6002.407964,0.187137
6002.407809,0.186329
6002.407651,0.185661
6002.407496,0.184925
6002.407341,0.184327
6002.407183,0.183546
6002.407028,0.182957
6002.406869,0.182381
6002.406714,0.182091
6002.406559,0.18205
6002.406401,0.181663
6002.406246,0.181418
6002.406091,0.181522
6002.405932,0.181058
6002.405777,0.180921
6002.405619,0.18056
6002.405464,0.180385
6002.405309,0.179907
6002.405151,0.1799
6002.404996,0.179559
6002.404837,0.179353
6002.404682,0.179049
6002.404527,0.17821
6002.404369,0.177312
6002.404214,0.176382
6002.404055,0.174827
6002.4039,0.173419
6002.403745,0.171541
6002.403587,0.169957
6002.403432,0.168542
6002.403277,0.167735
6002.403119,0.167147
6002.402964,0.167031
6002.402805,0.16658
6002.40265,0.166739
6002.402495,0.166723
6002.402337,0.167457
6002.402182,0.168055
6002.402023,0.168792
6002.401868,0.170021
6002.401713,0.170919
6002.401555,0.172011
6002.4014,0.173453
6002.401241,0.174348
6002.401086,0.175464
6002.400932,0.176263
6002.400773,0.177215
6002.400618,0.177881
6002.400463,0.178701
6002.400305,0.179604
6002.40015,0.180094
6002.399991,0.18075
6002.399836,0.181365
6002.399681,0.18126
6002.399523,0.18152
6002.399368,0.181476
6002.399209,0.181177
6002.399054,0.180807
6002.3989,0.180747
6002.398741,0.180043
6002.398586,0.179782
6002.398428,0.179293
6002.398273,0.178554
6002.398118,0.17747
6002.397959,0.176611
6002.397804,0.175559
6002.397649,0.174621
6002.397491,0.173685
6002.397336,0.172726
6002.397177,0.172301
6002.397022,0.17168
6002.396868,0.171487
6002.396709,0.171105
6002.396554,0.171062
6002.396396,0.170784
6002.396241,0.171024
6002.396086,0.170929
6002.395927,0.171425
6002.395772,0.171392
6002.395617,0.171659
6002.395459,0.171493
6002.395304,0.170881
6002.395145,0.170084
6002.39499,0.168968
6002.394835,0.167707
6002.394677,0.166941
6002.394522,0.166207
6002.394364,0.165443
6002.394209,0.164865
6002.394054,0.164289
6002.393895,0.163628
6002.39374,0.163113
6002.393582,0.162357
6002.393427,0.16164
6002.393272,0.161025
6002.393113,0.160193
6002.392958,0.159476
6002.392803,0.159049
6002.392645,0.158292
6002.39249,0.158135
6002.392331,0.15775
6002.392177,0.157294
6002.392022,0.156726
6002.391863,0.156296
6002.391708,0.155742
6002.39155,0.155513
6002.391395,0.155042
6002.39124,0.154818
6002.391081,0.154379
6002.390926,0.154058
6002.390768,0.153575
6002.390613,0.153023
6002.390458,0.152244
6002.390299,0.15159
6002.390145,0.150691
6002.38999,0.149917
6002.389831,0.148961
6002.389676,0.148075
6002.389518,0.147011
6002.389363,0.14602
6002.389208,0.14465
6002.389049,0.143519
6002.388894,0.142331
6002.388736,0.141277
6002.388581,0.140475
6002.388426,0.139441
6002.388267,0.139066
6002.388113,0.138416
6002.387954,0.138199
6002.387799,0.137962
6002.387644,0.137958
6002.387486,0.13773
6002.387331,0.137205
6002.387176,0.137075
6002.387017,0.136825
6002.386862,0.136652
6002.386704,0.136561
6002.386549,0.136598
6002.386394,0.136365
6002.386235,0.135969
6002.386081,0.135513
6002.385922,0.134853
6002.385767,0.134388
6002.385612,0.133656
6002.385454,0.133593
6002.385299,0.132862
6002.38514,0.132741
6002.384985,0.1325
6002.38483,0.132212
6002.384672,0.132162
6002.384517,0.132169
6002.384362,0.131718
6002.384203,0.131715
6002.384049,0.131464
6002.38389,0.131398
6002.383735,0.131165
6002.38358,0.130648
6002.383422,0.130654
6002.383267,0.13045
6002.383108,0.129956
6002.382953,0.129825
6002.382798,0.129418
6002.38264,0.129109
6002.382485,0.129073
6002.382326,0.129116
6002.382171,0.128976
6002.382016,0.129075
6002.381858,0.129254
6002.381703,0.129604
6002.381548,0.129756
6002.38139,0.129856
6002.381235,0.129904
6002.381076,0.129933
6002.380921,0.130036
6002.380766,0.130049
6002.380608,0.129719
6002.380453,0.12958
6002.380294,0.129314
6002.380139,0.129038
6002.379984,0.128281
6002.379826,0.127691
6002.379671,0.12664
6002.379513,0.126046
6002.379358,0.12529
6002.379203,0.124069
6002.379044,0.123006
6002.378889,0.122218
6002.378734,0.121649
6002.378576,0.121225
6002.378421,0.120894
6002.378262,0.120657
6002.378107,0.120514
6002.377952,0.12044
6002.377794,0.120142
6002.377639,0.120235
6002.37748,0.119833
6002.377326,0.119777
6002.377171,0.119691
6002.377012,0.119226
6002.376857,0.118777
6002.376699,0.118304
6002.376544,0.1175
6002.376389,0.116636
6002.37623,0.115914
6002.376075,0.114825
6002.37592,0.113945
6002.375762,0.113434
6002.375607,0.112661
6002.375448,0.111872
6002.375294,0.111137
6002.375139,0.111018
6002.37498,0.110653
6002.374825,0.110285
6002.374667,0.110442
6002.374512,0.110533
6002.374357,0.111074
6002.374198,0.111475
6002.374043,0.112231
6002.373885,0.112841
6002.37373,0.11361
6002.373575,0.114185
6002.373416,0.114395
6002.373262,0.11455
6002.373107,0.114528
6002.372948,0.114314
6002.372793,0.114339
6002.372635,0.114153
6002.37248,0.113991
6002.372325,0.113601
6002.372166,0.113334
6002.372011,0.112779
6002.371853,0.112323
6002.371698,0.111349
6002.371543,0.110504
6002.371384,0.109739
6002.37123,0.109154
6002.371071,0.108439
6002.370916,0.107586
6002.370761,0.107062
6002.370603,0.106594
6002.370448,0.106
6002.370293,0.105637
6002.370134,0.105233
6002.369979,0.104913
6002.369821,0.104844
6002.369666,0.104795
6002.369511,0.104866
6002.369352,0.10517
6002.369198,0.105445
6002.369039,0.105969
6002.368884,0.106378
6002.368729,0.106754
6002.368571,0.107295
6002.368416,0.107834
6002.368257,0.107899
6002.368102,0.107958
6002.367947,0.108288
6002.367789,0.108121
6002.367634,0.107828
6002.367479,0.107047
6002.36732,0.106027
6002.367166,0.104871
6002.367007,0.103405
6002.366852,0.102223
6002.366697,0.101258
6002.366539,0.100467
6002.366384,0.100473
6002.366225,0.100051
6002.36607,0.099874
6002.365915,0.099558
6002.365757,0.099069
6002.365602,0.099143
6002.365443,0.098742
6002.365288,0.098778
6002.365134,0.09901
6002.364975,0.099227
6002.36482,0.09947
6002.364665,0.099467
6002.364507,0.099278
6002.364352,0.099301
6002.364193,0.098976
6002.364038,0.09883
6002.363883,0.098447
6002.363725,0.09807
6002.36357,0.09771
6002.363411,0.097499
6002.363256,0.097147
6002.363102,0.096778
6002.362943,0.096324
6002.362788,0.095837
6002.36263,0.095499
6002.362475,0.094979
6002.36232,0.09471
6002.362161,0.09424
6002.362006,0.093577
6002.361851,0.092862
6002.361693,0.092073
6002.361538,0.091226
6002.361379,0.090115
6002.361224,0.088999
6002.36107,0.087776
6002.360911,0.086866
6002.360756,0.085805
6002.360598,0.084835
6002.360443,0.084189
6002.360288,0.083706
6002.360129,0.083389
6002.359974,0.083011
6002.359816,0.082908
6002.359661,0.08243
6002.359506,0.082536
6002.359347,0.0822
6002.359192,0.082464
6002.359038,0.08266
6002.358879,0.083073
6002.358724,0.083644
6002.358566,0.084232
6002.358411,0.084743
6002.358256,0.08481
6002.358097,0.084497
6002.357942,0.083609
6002.357784,0.083307
6002.357629,0.082522
6002.357474,0.081709
6002.357315,0.080902
6002.35716,0.080166
6002.357002,0.079333
6002.356847,0.078842
6002.356692,0.078126
6002.356534,0.077492
6002.356379,0.076995
6002.356224,0.076691
6002.356065,0.076648
6002.35591,0.076493
6002.355752,0.076967
6002.355597,0.077041
6002.355442,0.077607
6002.355283,0.078172
6002.355128,0.078738
6002.35497,0.079264
6002.354815,0.079914
6002.35466,0.080901
6002.354502,0.081345
6002.354347,0.082518
6002.354192,0.08304
6002.354033,0.08339
6002.353878,0.083847
6002.35372,0.083973
6002.353565,0.083685
6002.35341,0.083398
6002.353251,0.083006
6002.353096,0.082557
6002.352938,0.082267
6002.352783,0.081458
6002.352628,0.080918
6002.35247,0.080155
6002.352315,0.079419
6002.352156,0.078866
6002.352001,0.077852
6002.351846,0.077106
6002.351688,0.076295
6002.351533,0.075686
6002.351378,0.075106
6002.351219,0.074867
6002.351064,0.0749
6002.350906,0.074945
6002.350751,0.074854
6002.350596,0.074973
6002.350438,0.075121
6002.350283,0.074884
6002.350124,0.075166
6002.349969,0.075247
6002.349814,0.075257
6002.349656,0.075272
6002.349501,0.075125
6002.349342,0.074824
6002.349187,0.07426
6002.349032,0.073676
6002.348874,0.073165
6002.348719,0.07243
6002.348564,0.071966
6002.348406,0.071487
6002.348251,0.071166
6002.348092,0.071002
6002.347937,0.070807
6002.347782,0.070621
6002.347624,0.070334
6002.347469,0.070199
6002.34731,0.070182
6002.347155,0.070279
6002.347001,0.070511
6002.346842,0.070568
6002.346687,0.071461
6002.346529,0.072019
6002.346374,0.072695
6002.346219,0.073534
6002.34606,0.074247
6002.345905,0.074793
6002.34575,0.075147
6002.345592,0.075485
6002.345437,0.075959
6002.345278,0.076117
6002.345123,0.076297
6002.344969,0.07616
6002.34481,0.07595
6002.344655,0.075565
6002.344497,0.075248
6002.344342,0.074351
6002.344187,0.073852
6002.344028,0.072988
6002.343873,0.071904
6002.343715,0.071017
6002.34356,0.069841
6002.343405,0.068827
6002.343246,0.067707
6002.343091,0.066691
6002.342937,0.065448
6002.342778,0.063994
6002.342623,0.062697
6002.342465,0.061587
6002.34231,0.060869
6002.342155,0.060257
6002.341996,0.060005
6002.341841,0.059894
6002.341683,0.060273
6002.341528,0.0606
6002.341373,0.061243
6002.341214,0.061911
6002.341059,0.062766
6002.340901,0.063627
6002.340746,0.06506
6002.340591,0.066485
6002.340433,0.067573
6002.340278,0.068856
6002.340123,0.070073
6002.339964,0.070777
6002.339809,0.071607
6002.339651,0.07199
6002.339496,0.072253
6002.339341,0.07242
6002.339182,0.072543
6002.339027,0.07261
6002.338869,0.073135
6002.338714,0.073468
6002.338559,0.073746
6002.338401,0.07392
6002.338246,0.074306
6002.338087,0.074192
6002.337932,0.074348
6002.337777,0.074502
6002.337619,0.074557
6002.337464,0.074526
6002.337309,0.074851
6002.33715,0.075184
6002.336996,0.075605
6002.336837,0.076106
6002.336682,0.076478
6002.336527,0.076611
6002.336369,0.076854
6002.336214,0.077096
6002.336055,0.077331
6002.3359,0.077351
6002.335745,0.077533
6002.335587,0.077751
6002.335432,0.077644
6002.335273,0.077866
6002.335118,0.077765
6002.334964,0.077713
6002.334805,0.077416
6002.33465,0.077115
6002.334495,0.076784
6002.334337,0.076442
6002.334182,0.076094
6002.334023,0.075659
6002.333868,0.075265
6002.333713,0.074672
6002.333555,0.074083
6002.3334,0.073598
6002.333241,0.073111
6002.333086,0.072433
6002.332932,0.071687
6002.332773,0.071402
6002.332618,0.071263
6002.33246,0.07143
6002.332305,0.071749
6002.33215,0.071901
6002.331991,0.072504
6002.331836,0.072585
6002.331681,0.073021
6002.331523,0.073272
6002.331368,0.073635
6002.331209,0.074059
6002.331054,0.074246
6002.3309,0.07424
6002.330741,0.074107
6002.330586,0.073627
6002.330428,0.073152
6002.330273,0.072571
6002.330118,0.071832
6002.329959,0.071125
6002.329804,0.070793
6002.329646,0.070431
6002.329491,0.069995
6002.329336,0.06982
6002.329177,0.07017
6002.329023,0.070078
6002.328868,0.070278
6002.328709,0.07034
6002.328554,0.07034
6002.328396,0.070542
6002.328241,0.070417
6002.328086,0.070392
6002.327927,0.070184
6002.327772,0.069759
6002.327614,0.069245
6002.327459,0.068702
6002.327304,0.068055
6002.327145,0.067371
6002.326991,0.067065
6002.326832,0.066325
6002.326677,0.065843
6002.326522,0.065174
6002.326364,0.064478
6002.326209,0.063712
6002.326054,0.06304
6002.325895,0.06226
6002.32574,0.061303
6002.325582,0.06038
6002.325427,0.059878
6002.325272,0.058849
6002.325113,0.058272
6002.324959,0.057628
6002.3248,0.057248
6002.324645,0.056721
6002.32449,0.0564
6002.324332,0.05594
6002.324177,0.055453
6002.324018,0.055078
6002.323863,0.054539
6002.323708,0.054331
6002.32355,0.054027
6002.323395,0.054019
6002.32324,0.054141
6002.323082,0.054377
6002.322927,0.054229
6002.322768,0.054473
6002.322613,0.055041
6002.322458,0.05567
6002.3223,0.056419
6002.322145,0.05707
6002.321986,0.057926
6002.321831,0.059152
6002.321676,0.060195
6002.321518,0.061064
6002.321363,0.061747
6002.321204,0.061797
6002.32105,0.061943
6002.320895,0.061953
6002.320736,0.061599
6002.320581,0.061352
6002.320426,0.061041
6002.320268,0.060268
6002.320113,0.059827
6002.319954,0.059057
6002.319799,0.058022
6002.319644,0.056937
6002.319486,0.056054
6002.319331,0.054812
6002.319172,0.053806
6002.319018,0.052908
6002.318863,0.052024
6002.318704,0.051015
6002.318549,0.050179
6002.318391,0.049246
6002.318236,0.048338
6002.318081,0.047522
6002.317922,0.046796
6002.317767,0.046009
6002.317612,0.045279
6002.317454,0.04461
6002.317299,0.044178
6002.317141,0.04362
6002.316986,0.043169
6002.316831,0.042653
6002.316672,0.042522
6002.316517,0.042216
6002.316359,0.042091
6002.316204,0.041772
6002.316049,0.041884
6002.31589,0.041969
6002.315735,0.041961
6002.315581,0.042141
6002.315422,0.042295
6002.315267,0.042276
6002.315109,0.042578
6002.314954,0.042393
6002.314799,0.042652
6002.31464,0.042575
6002.314485,0.042637
6002.314327,0.042958
6002.314172,0.043396
6002.314017,0.043455
6002.313858,0.043864
6002.313703,0.044087
6002.313545,0.044172
6002.31339,0.0441
6002.313235,0.044127
6002.313077,0.044048
6002.312922,0.04388
6002.312767,0.044228
6002.312608,0.044184
6002.312453,0.044337
6002.312295,0.044608
6002.31214,0.044521
6002.311985,0.044505
6002.311826,0.044673
6002.311671,0.044591
6002.311513,0.044937
6002.311358,0.045297
6002.311203,0.045571
6002.311045,0.045944
6002.31089,0.046206
6002.310731,0.046215
6002.310576,0.046224
6002.310421,0.045985
6002.310263,0.045797
6002.310108,0.04545
6002.309953,0.045368
6002.309794,0.045139
6002.30964,0.04534
6002.309481,0.045457
6002.309326,0.045755
6002.309171,0.046084
6002.309013,0.046456
6002.308858,0.046684
6002.308699,0.047115
6002.308544,0.047463
6002.308389,0.047792
6002.308231,0.048182
6002.308076,0.048639
6002.307917,0.049271
6002.307762,0.049821
6002.307608,0.050583
6002.307449,0.051081
6002.307294,0.051835
6002.307139,0.052285
6002.306981,0.052926
6002.306826,0.053277
6002.306667,0.053809
6002.306512,0.054134
6002.306357,0.05449
6002.306199,0.054875
6002.306044,0.055221
6002.305885,0.055445
6002.305731,0.055568
6002.305576,0.055698
6002.305417,0.055445
6002.305262,0.05499
6002.305104,0.054721
6002.304949,0.053925
6002.304794,0.053925
6002.304635,0.053291
6002.30448,0.053027
6002.304325,0.052676
6002.304167,0.052171
6002.304012,0.051789
6002.303853,0.051045
6002.303699,0.05034
6002.303544,0.049742
6002.303385,0.049129
6002.30323,0.048729
6002.303072,0.04821
6002.302917,0.048072
6002.302762,0.047569
6002.302603,0.047136
6002.302448,0.046737
6002.30229,0.046083
6002.302135,0.045495
6002.30198,0.044448
6002.301822,0.043665
6002.301667,0.042834
6002.301512,0.042123
6002.301353,0.041278
6002.301198,0.040684
6002.30104,0.039873
6002.300885,0.039295
6002.30073,0.038633
6002.300571,0.038031
6002.300416,0.037634
6002.300258,0.037286
6002.300103,0.036899
6002.299948,0.036697
6002.29979,0.036606
6002.299635,0.036546
6002.299476,0.036562
6002.299321,0.036511
6002.299166,0.036254
6002.299008,0.035978
6002.298853,0.035813
6002.298698,0.035582
6002.298539,0.035636
6002.298384,0.035454
6002.298226,0.035531
6002.298071,0.035389
6002.297916,0.035311
6002.297758,0.035206
6002.297603,0.035014
6002.297444,0.034694
6002.297289,0.034701
6002.297134,0.034584
6002.296976,0.034578
6002.296821,0.034349
6002.296662,0.034262
6002.296507,0.034356
6002.296353,0.034259
6002.296194,0.034231
6002.296039,0.034157
6002.295884,0.033883
6002.295726,0.03397
6002.295571,0.03362
6002.295412,0.033867
6002.295257,0.033892
6002.295102,0.034416
6002.294944,0.035093
6002.294789,0.035841
6002.29463,0.036528
6002.294476,0.037305
6002.294321,0.038105
6002.294162,0.038664
6002.294007,0.039288
6002.293849,0.039877
6002.293694,0.040315
6002.293539,0.04085
6002.29338,0.041006
6002.293225,0.041102
6002.29307,0.041078
6002.292912,0.040937
6002.292757,0.040273
6002.292598,0.039684
6002.292444,0.039215
6002.292289,0.038881
6002.29213,0.038534
6002.291975,0.038839
6002.291817,0.039047
6002.291662,0.039317
6002.291507,0.039376
6002.291348,0.039445
6002.291193,0.039414
6002.291035,0.039512
6002.29088,0.039399
6002.290725,0.039032
6002.290567,0.038895
6002.290412,0.038395
6002.290257,0.038045
6002.290098,0.037712
6002.289943,0.037367
6002.289785,0.036677
6002.28963,0.036491
6002.289475,0.036035
6002.289316,0.035757
6002.289161,0.035282
6002.289003,0.034829
6002.288848,0.034661
6002.288693,0.034233
6002.288535,0.033813
6002.28838,0.033455
6002.288221,0.033193
6002.288066,0.032975
6002.287911,0.03247
6002.287753,0.032423
6002.287598,0.032415
6002.287443,0.032245
6002.287284,0.032371
6002.287129,0.032469
6002.286971,0.032491
6002.286816,0.032614
6002.286661,0.032884
6002.286503,0.033268
6002.286348,0.033443
6002.286189,0.033842
6002.286034,0.034179
6002.285879,0.034412
6002.285721,0.034609
6002.285566,0.034761
6002.285407,0.034953
6002.285252,0.035007
6002.285098,0.035069
6002.284939,0.03527
6002.284784,0.035699
6002.284629,0.036158
6002.284471,0.036834
6002.284316,0.037671
6002.284157,0.038704
6002.284002,0.039659
6002.283847,0.040821
6002.283689,0.04167
6002.283534,0.042431
6002.283375,0.042909
6002.283221,0.043328
6002.283066,0.043419
6002.282907,0.043435
6002.282752,0.043178
6002.282594,0.043066
6002.282439,0.042692
6002.282284,0.042143
6002.282125,0.041376
6002.28197,0.040824
6002.281815,0.040328
6002.281657,0.039933
6002.281502,0.039308
6002.281343,0.038976
6002.281189,0.038503
6002.281034,0.038173
6002.280875,0.03783
6002.28072,0.037308
6002.280562,0.037017
6002.280407,0.036725
6002.280252,0.036457
6002.280093,0.036247
6002.279938,0.036359
6002.27978,0.036046
6002.279625,0.035856
6002.27947,0.035499
6002.279312,0.035097
6002.279157,0.03458
6002.279002,0.03399
6002.278843,0.033203
6002.278688,0.032673
6002.27853,0.032128
6002.278375,0.031437
6002.27822,0.031146
6002.278061,0.03058
6002.277906,0.030184
6002.277748,0.029545
6002.277593,0.029174
6002.277438,0.028644
6002.27728,0.028365
6002.277125,0.027816
6002.276966,0.027131
6002.276811,0.026959
6002.276656,0.026713
6002.276498,0.026374
6002.276343,0.026085
6002.276188,0.025742
6002.276029,0.02546
6002.275875,0.025215
6002.275716,0.024809
6002.275561,0.024608
6002.275406,0.024547
6002.275248,0.024205
6002.275093,0.024162
6002.274934,0.024014
6002.274779,0.023626
6002.274624,0.023176
6002.274466,0.022534
6002.274311,0.021682
6002.274156,0.02078
6002.273998,0.02027
6002.273843,0.019725
6002.273684,0.019646
6002.273529,0.019682
6002.273374,0.019623
6002.273216,0.019862
6002.273061,0.019892
6002.272902,0.020194
6002.272747,0.020644
6002.272592,0.021404
6002.272434,0.021709
6002.272279,0.022525
6002.27212,0.023536
6002.271966,0.02439
6002.271811,0.025377
6002.271652,0.026458
6002.271497,0.027112
6002.271342,0.027827
6002.271184,0.028313
6002.271029,0.028817
6002.27087,0.028985
6002.270715,0.029099
6002.270561,0.028943
6002.270402,0.028639
6002.270247,0.028406
6002.270089,0.027664
6002.269934,0.026746
6002.269779,0.025977
6002.26962,0.024652
6002.269465,0.023708
6002.269307,0.022738
6002.269152,0.022019
6002.268997,0.021085
6002.268838,0.020634
6002.268683,0.020109
6002.268529,0.019623
6002.26837,0.019482
6002.268215,0.019179
6002.268057,0.019143
6002.267902,0.019252
6002.267747,0.019248
6002.267588,0.019528
6002.267433,0.019782
6002.267275,0.020048
6002.26712,0.020663
6002.266965,0.021163
6002.266806,0.021928
6002.266652,0.022421
6002.266493,0.023411
6002.266338,0.024235
6002.266183,0.025505
6002.266025,0.02643
6002.26587,0.027732
6002.265715,0.028989
6002.265556,0.03034
6002.265401,0.031388
6002.265243,0.032591
6002.265088,0.033439
6002.264933,0.034202
6002.264775,0.034806
6002.26462,0.035165
6002.264461,0.035819
6002.264306,0.036373
6002.264151,0.036519
6002.263993,0.036854
6002.263838,0.036851
6002.263679,0.036845
6002.263524,0.036701
6002.263369,0.036417
6002.263211,0.036067
6002.263056,0.035617
6002.262901,0.035186
6002.262743,0.034959
6002.262588,0.034954
6002.262429,0.034948
6002.262274,0.035027
6002.262119,0.03502
6002.261961,0.034956
6002.261806,0.034861
6002.261647,0.034828
6002.261492,0.034908
6002.261338,0.034933
6002.261179,0.034964
6002.261024,0.034937
6002.260866,0.03489
6002.260711,0.034636
6002.260556,0.034536
6002.260397,0.033973
6002.260242,0.033418
6002.260087,0.032192
6002.259929,0.031488
6002.259774,0.03045
6002.259615,0.029558
6002.259461,0.028512
6002.259306,0.027557
6002.259147,0.026704
6002.258992,0.025963
6002.258834,0.02536
6002.258679,0.024741
6002.258524,0.024122
6002.258365,0.023745
6002.25821,0.023637
6002.258052,0.023175
6002.257897,0.023301
6002.257742,0.023304
6002.257584,0.023788
6002.257429,0.024118
6002.257274,0.024277
6002.257115,0.024798
6002.25696,0.025255
6002.256802,0.025689
6002.256647,0.026345
6002.256492,0.026892
6002.256333,0.02744
6002.256178,0.028046
6002.25602,0.028367
6002.255865,0.028394
6002.25571,0.028189
6002.255552,0.027846
6002.255397,0.027431
6002.255238,0.026586
6002.255083,0.02581
6002.254928,0.025476
6002.25477,0.025226
6002.254615,0.02514
6002.25446,0.024863
6002.254301,0.024835
6002.254147,0.024862
6002.253988,0.024968
6002.253833,0.025288
6002.253678,0.02568
6002.25352,0.026121
6002.253365,0.026607
6002.253206,0.027139
6002.253051,0.027626
6002.252896,0.028327
6002.252738,0.028585
6002.252583,0.029014
6002.252424,0.029132
6002.25227,0.029427
6002.252115,0.029335
6002.251956,0.029234
6002.251801,0.02912
6002.251646,0.028566
6002.251488,0.028205
6002.251333,0.027651
6002.251174,0.02702
6002.251019,0.02627
6002.250864,0.0256
6002.250706,0.02478
6002.250551,0.024209
6002.250393,0.023462
6002.250238,0.02282
6002.250083,0.022416
6002.249924,0.021849
6002.249769,0.021477
6002.249611,0.021217
6002.249456,0.02083
6002.249301,0.020479
6002.249142,0.020289
6002.248987,0.020051
6002.248833,0.019871
6002.248674,0.019905
6002.248519,0.019997
6002.248361,0.020184
6002.248206,0.020225
6002.248051,0.02015
6002.247892,0.019943
6002.247737,0.019543
6002.247579,0.019255
6002.247424,0.019006
6002.247269,0.018701
6002.24711,0.018221
6002.246956,0.0182
6002.246797,0.018099
6002.246642,0.01809
6002.246487,0.018201
6002.246329,0.018506
6002.246174,0.018659
6002.246019,0.01866
6002.24586,0.018759
6002.245705,0.018881
6002.245547,0.019076
6002.245392,0.019187
6002.245237,0.019175
6002.245079,0.019204
6002.244924,0.019295
6002.244765,0.019129
6002.24461,0.018926
6002.244455,0.018719
6002.244297,0.018518
6002.244142,0.018379
6002.243983,0.018518
6002.243828,0.018455
6002.243673,0.018504
6002.243515,0.018852
6002.24336,0.019024
6002.243205,0.019155
6002.243047,0.01931
6002.242892,0.019784
6002.242733,0.019984
6002.242578,0.020653
6002.242423,0.021334
6002.242265,0.021894
6002.24211,0.022572
6002.241951,0.023106
6002.241796,0.023601
6002.241642,0.024133
6002.241483,0.024468
6002.241328,0.02471
6002.24117,0.025018
6002.241015,0.0252
6002.24086,0.025186
6002.240701,0.025635
6002.240546,0.025456
6002.240391,0.025774
6002.240233,0.025743
6002.240078,0.025892
6002.239919,0.025782
6002.239765,0.025816
6002.23961,0.025952
6002.239451,0.025482
6002.239296,0.025604
6002.239138,0.025325
6002.238983,0.025096
6002.238828,0.024922
6002.238669,0.024715
6002.238514,0.024634
6002.238356,0.024282
6002.238201,0.023927
6002.238046,0.023446
6002.237888,0.023273
6002.237733,0.022919
6002.237578,0.022588
6002.237419,0.022084
6002.237264,0.021736
6002.237106,0.020893
6002.236951,0.020144
6002.236796,0.018995
6002.236637,0.017972
6002.236483,0.016873
6002.236324,0.015669
6002.236169,0.014663
6002.236014,0.013825
6002.235856,0.012712
6002.235701,0.011844
6002.235542,0.011096
6002.235387,0.009993
6002.235232,0.009202
6002.235074,0.008514
6002.234919,0.007674
6002.234764,0.006788
6002.234606,0.006174
6002.234451,0.00557
6002.234292,0.004935
6002.234137,0.004574
6002.233982,0.004105
6002.233824,0.003867
6002.233669,0.003586
6002.23351,0.003514
6002.233355,0.003326
6002.2332,0.003407
6002.233042,0.003673
6002.232887,0.003836
6002.232732,0.004091
6002.232574,0.004309
6002.232419,0.004558
6002.23226,0.004683
6002.232105,0.005042
6002.23195,0.004993
6002.231792,0.005104
6002.231637,0.00533
6002.231478,0.00556
6002.231323,0.006131
6002.231169,0.006834
6002.23101,0.007298
6002.230855,0.00821
6002.230697,0.009027
6002.230542,0.009941
6002.230387,0.01079
6002.230228,0.011616
6002.230073,0.012534
6002.229918,0.013468
6002.22976,0.014371
6002.229605,0.015318
6002.229446,0.016365
6002.229292,0.017485
6002.229137,0.018418
6002.228978,0.019419
6002.228823,0.020353
6002.228665,0.021214
6002.22851,0.02227
6002.228355,0.023267
6002.228196,0.024043
6002.228041,0.025108
6002.227883,0.026194
6002.227728,0.026819
6002.227573,0.027647
6002.227415,0.028011
6002.22726,0.028235
6002.227105,0.028306
6002.226946,0.028197
6002.226791,0.027769
6002.226633,0.027488
6002.226478,0.027408
6002.226323,0.027132
6002.226164,0.026911
6002.22601,0.026683
6002.225851,0.026462
6002.225696,0.02622
6002.225541,0.026083
6002.225383,0.025967
6002.225228,0.025867
6002.225069,0.026285
6002.224914,0.026556
6002.224759,0.027024
6002.224601,0.027551
6002.224446,0.02805
6002.224291,0.028545
6002.224133,0.028897
6002.223978,0.029251
6002.223819,0.029694
6002.223664,0.029929
6002.223509,0.030122
6002.223351,0.030374
6002.223196,0.030515
6002.223037,0.030805
6002.222882,0.030886
6002.222728,0.031024
6002.222569,0.031178
6002.222414,0.031142
6002.222256,0.03104
6002.222101,0.030644
6002.221946,0.030475
6002.221787,0.029802
6002.221632,0.029493
6002.221477,0.02906
6002.221319,0.028396
6002.221164,0.027866
6002.221005,0.027084
6002.220851,0.026319
6002.220696,0.025376
6002.220537,0.02453
6002.220382,0.023796
6002.220224,0.023144
6002.220069,0.022635
6002.219914,0.022058
6002.219755,0.021541
6002.2196,0.021289
6002.219442,0.021104
6002.219287,0.02066
6002.219132,0.020432
6002.218974,0.020312
6002.218819,0.020391
6002.218664,0.020259
6002.218505,0.020528
6002.21835,0.020832
6002.218192,0.020943
6002.218037,0.021137
6002.217882,0.020952
6002.217723,0.020776
6002.217568,0.020319
6002.21741,0.019735
6002.217255,0.019154
6002.2171,0.01859
6002.216942,0.018316
6002.216787,0.018169
6002.216628,0.017837
6002.216473,0.017632
6002.216318,0.017459
6002.21616,0.017221
6002.216005,0.017031
6002.21585,0.017025
6002.215692,0.016776
6002.215537,0.016936
6002.215378,0.016811
6002.215223,0.016553
6002.215068,0.016644
6002.21491,0.016652
6002.214755,0.016819
6002.214596,0.017175
6002.214441,0.017361
6002.214286,0.017791
6002.214128,0.01798
6002.213973,0.018123
6002.213815,0.018402
6002.21366,0.01833
6002.213505,0.018256
6002.213346,0.018426
6002.213191,0.018223
6002.213036,0.018415
6002.212878,0.018585
6002.212723,0.018656
6002.212564,0.018825
6002.212409,0.019045
6002.212255,0.019084
6002.212096,0.01899
6002.211941,0.018747
6002.211783,0.01843
6002.211628,0.018054
6002.211473,0.017501
6002.211314,0.017065
6002.211159,0.016594
6002.211001,0.016188
6002.210846,0.015975
6002.210691,0.015999
6002.210533,0.016194
6002.210378,0.016122
6002.210223,0.016319
6002.210064,0.016528
6002.209909,0.016813
6002.209751,0.016688
6002.209596,0.017003
6002.209441,0.017289
6002.209282,0.017388
6002.209127,0.017657
6002.208969,0.017872
6002.208814,0.018072
6002.208659,0.01843
6002.208501,0.018971
6002.208346,0.019172
6002.208187,0.019538
6002.208032,0.019896
6002.207877,0.020348
6002.207719,0.020208
6002.207564,0.020094
6002.207409,0.019922
6002.20725,0.019677
6002.207096,0.019486
6002.206937,0.019321
6002.206782,0.019053
6002.206627,0.019222
6002.206469,0.019288
6002.206314,0.019497
6002.206155,0.019921
6002.206,0.02038
6002.205845,0.021002
6002.205687,0.021426
6002.205532,0.021824
6002.205374,0.022395
6002.205219,0.022775
6002.205064,0.023012
6002.204905,0.023059
6002.20475,0.023118
6002.204595,0.02343
6002.204437,0.023236
6002.204282,0.023159
6002.204123,0.022991
6002.203968,0.022511
6002.203814,0.021873
6002.203655,0.021385
6002.2035,0.020702
6002.203342,0.020068
6002.203187,0.019299
6002.203032,0.018805
6002.202873,0.018384
6002.202718,0.017786
6002.20256,0.01718
6002.202405,0.01672
6002.20225,0.016372
6002.202092,0.016127
6002.201937,0.015773
6002.201782,0.015641
6002.201623,0.015362
6002.201468,0.015408
6002.20131,0.015676
6002.201155,0.01601
6002.201,0.016382
6002.200841,0.016924
6002.200686,0.017194
6002.200528,0.01775
6002.200373,0.018228
6002.200218,0.018765
6002.20006,0.019508
6002.199905,0.020352
6002.199746,0.020961
6002.199591,0.021549
6002.199436,0.022107
6002.199278,0.022754
6002.199123,0.022977
6002.198968,0.023355
6002.198809,0.023636
6002.198655,0.023529
6002.198496,0.023455
6002.198341,0.023626
6002.198186,0.023444
6002.198028,0.023351
6002.197873,0.023043
6002.197714,0.022453
6002.197559,0.021966
6002.197404,0.021146
6002.197246,0.020493
6002.197091,0.019886
6002.196933,0.019317
6002.196778,0.018851
6002.196623,0.018594
6002.196464,0.018438
6002.196309,0.018374
6002.196154,0.018143
6002.195996,0.018034
6002.195841,0.017967
6002.195682,0.017871
6002.195527,0.017783
6002.195373,0.017972
6002.195214,0.018056
6002.195059,0.018302
6002.194901,0.018468
6002.194746,0.018716
6002.194591,0.018903
6002.194432,0.018941
6002.194277,0.01902
6002.194119,0.01894
6002.193964,0.019194
6002.193809,0.019222
6002.193651,0.019174
6002.193496,0.019265
6002.193341,0.019048
6002.193182,0.019002
6002.193027,0.018945
6002.192869,0.018831
6002.192714,0.018897
6002.192559,0.018754
6002.1924,0.018798
6002.192245,0.018621
6002.192087,0.01835
6002.191932,0.018337
6002.191777,0.018158
6002.191619,0.017918
6002.191464,0.017853
6002.191309,0.01789
6002.19115,0.017641
6002.190995,0.017566
6002.190837,0.017525
6002.190682,0.017475
6002.190527,0.017452
6002.190369,0.017677
6002.190214,0.017837
6002.190055,0.018301
6002.1899,0.018723
6002.189745,0.019148
6002.189587,0.019547
6002.189432,0.0199
6002.189273,0.020343
6002.189118,0.020741
6002.188964,0.020894
6002.188805,0.021514
6002.18865,0.021723
6002.188495,0.022371
6002.188337,0.022536
6002.188182,0.023197
6002.188023,0.023513
6002.187868,0.023948
6002.187713,0.023988
6002.187555,0.024046
6002.1874,0.023803
6002.187241,0.023745
6002.187087,0.023204
6002.186932,0.023295
6002.186773,0.02275
6002.186618,0.022278
6002.18646,0.021898
6002.186305,0.021293
6002.18615,0.020896
6002.185991,0.020546
6002.185836,0.020246
6002.185682,0.020179
6002.185523,0.020319
6002.185368,0.020368
6002.18521,0.020729
6002.185055,0.021188
6002.1849,0.021554
6002.184741,0.022201
6002.184586,0.022311
6002.184428,0.022576
6002.184273,0.022792
6002.184118,0.022558
6002.183959,0.022387
6002.183805,0.022056
6002.183646,0.021723
6002.183491,0.021251
6002.183336,0.020548
6002.183178,0.020006
6002.183023,0.019159
6002.182868,0.018677
6002.182709,0.018059
6002.182554,0.01744
6002.182396,0.016916
6002.182241,0.016348
6002.182086,0.016078
6002.181928,0.015813
6002.181773,0.015425
6002.181614,0.01531
6002.181459,0.014986
6002.181304,0.014882
6002.181146,0.014694
6002.180991,0.014759
6002.180832,0.014997
6002.180677,0.015282
6002.180523,0.015669
6002.180364,0.016219
6002.180209,0.016676
6002.180054,0.01708
6002.179896,0.017274
6002.179741,0.017535
6002.179582,0.017601
6002.179427,0.017412
6002.179272,0.017399
6002.179114,0.017205
6002.178959,0.017477
6002.178801,0.017494
6002.178646,0.017531
6002.178491,0.017854
6002.178332,0.017774
6002.178177,0.018164
6002.178019,0.01831
6002.177864,0.018408
6002.177709,0.018283
6002.17755,0.017959
6002.177395,0.017901
6002.177241,0.017913
6002.177082,0.017431
6002.176927,0.017291
6002.176769,0.017111
6002.176614,0.016808
6002.176459,0.016386
6002.1763,0.016318
6002.176145,0.01591
6002.175987,0.015286
6002.175832,0.014735
6002.175677,0.014067
6002.175519,0.01343
6002.175364,0.012988
6002.175205,0.01234
6002.17505,0.011823
6002.174895,0.011413
6002.174737,0.01097
6002.174582,0.010902
6002.174427,0.010819
6002.174268,0.010733
6002.174114,0.010784
6002.173955,0.010998
6002.1738,0.010946
6002.173645,0.011548
6002.173487,0.011828
6002.173332,0.012258
6002.173173,0.01276
6002.173018,0.013385
6002.172863,0.013994
6002.172705,0.014665
6002.17255,0.015231
6002.172391,0.01569
6002.172237,0.016004
6002.172082,0.016524
6002.171923,0.016669
6002.171768,0.016826
6002.171613,0.016655
6002.171455,0.016626
6002.1713,0.016304
6002.171141,0.016131
6002.170986,0.015903
6002.170832,0.015616
6002.170673,0.015272
6002.170518,0.015312
6002.17036,0.015455
6002.170205,0.015227
6002.17005,0.015402
6002.169891,0.015395
6002.169736,0.015458
6002.169578,0.015669
6002.169423,0.015645
6002.169268,0.015657
6002.169109,0.015792
6002.168955,0.015976
6002.1688,0.016308
6002.168641,0.016662
6002.168486,0.016771
6002.168328,0.017067
6002.168173,0.017228
6002.168018,0.017122
6002.167859,0.017178
6002.167704,0.016874
6002.167546,0.016669
6002.167391,0.016163
6002.167236,0.015766
6002.167078,0.015427
6002.166923,0.015028
6002.166764,0.0146
6002.166609,0.014314
6002.166454,0.014244
6002.166296,0.014068
6002.166141,0.014018
6002.165986,0.013969
6002.165828,0.014073
6002.165673,0.014074
6002.165514,0.014235
6002.165359,0.014076
6002.165204,0.014048
6002.165046,0.013955
6002.164891,0.013838
6002.164732,0.013479
6002.164577,0.013364
6002.164423,0.013083
6002.164264,0.012877
6002.164109,0.012751
6002.163951,0.012593
6002.163796,0.012241
6002.163641,0.012164
6002.163482,0.012061
6002.163327,0.011993
6002.163172,0.01221
6002.163014,0.012309
6002.162859,0.012501
6002.1627,0.012609
6002.162546,0.013065
6002.162391,0.013361
6002.162232,0.013682
6002.162077,0.01411
6002.161919,0.014821
6002.161764,0.015174
6002.161609,0.015593
6002.16145,0.016023
6002.161295,0.016443
6002.161137,0.017043
6002.160982,0.017619
6002.160827,0.018037
6002.160669,0.018178
6002.160514,0.018498
6002.160359,0.018878
6002.1602,0.019499
6002.160045,0.019692
6002.159887,0.020049
6002.159732,0.020278
6002.159577,0.02007
6002.159419,0.020206
6002.159264,0.020005
6002.159105,0.019748
6002.15895,0.019171
6002.158795,0.018729
6002.158637,0.018376
6002.158482,0.017812
6002.158323,0.017524
6002.158168,0.016997
6002.158013,0.016522
6002.157855,0.015614
6002.1577,0.015003
6002.157545,0.013935
6002.157387,0.012892
6002.157232,0.011919
6002.157073,0.010891
6002.156918,0.009696
6002.156763,0.008596
6002.156605,0.007859
6002.15645,0.007021
6002.156291,0.006333
6002.156137,0.005447
6002.155982,0.005134
6002.155823,0.004581
6002.155668,0.004241
6002.15551,0.003832
6002.155355,0.003793
6002.1552,0.00381
6002.155041,0.003917
6002.154886,0.003762
6002.154732,0.003949
6002.154573,0.004108
6002.154418,0.004385
6002.15426,0.004802
6002.154105,0.005257
6002.15395,0.005798
6002.153791,0.006521
6002.153636,0.006948
6002.153478,0.008002
6002.153323,0.008745
6002.153168,0.00961
6002.153009,0.01025
6002.152855,0.010821
6002.152696,0.011279
6002.152541,0.01168
6002.152386,0.011938
6002.152228,0.011977
6002.152073,0.012103
6002.151918,0.011916
6002.151759,0.011867
6002.151604,0.011884
6002.151446,0.011698
6002.151291,0.011853